"Time (ps)"	"Counts per bin"
0	98336
100000000	99467
200000000	100264
300000000	100232
400000000	100006
500000000	100727
600000000	99759
700000000	100078
800000000	99822
900000000	99964
1000000000	100012
1100000000	99682
1200000000	100123
1300000000	99474
1400000000	99427
1500000000	99990
1600000000	99198
1700000000	99429
1800000000	99792
1900000000	99634
2000000000	100090
2100000000	99996
2200000000	100401
2300000000	100166
2400000000	100766
2500000000	100061
2600000000	100543
2700000000	100162
2800000000	99708
2900000000	100215
3000000000	100408
3100000000	99748
3200000000	99450
3300000000	100310
3400000000	100294
3500000000	100077
3600000000	100478
3700000000	99979
3800000000	100523
3900000000	100336
4000000000	100398
4100000000	99777
4200000000	100402
4300000000	99880
4400000000	99968
4500000000	100152
4600000000	99608
4700000000	100013
4800000000	99314
4900000000	99608
5000000000	100048
5100000000	99758
5200000000	99769
5300000000	99528
5400000000	99980
5500000000	99638
5600000000	99284
5700000000	100159
5800000000	99582
5900000000	99773
6000000000	99698
6100000000	100469
6200000000	100105
6300000000	99743
6400000000	100286
6500000000	100114
6600000000	100199
6700000000	100623
6800000000	100348
6900000000	99589
7000000000	100688
7100000000	100239
7200000000	100348
7300000000	99563
7400000000	100080
7500000000	99676
7600000000	100289
7700000000	99703
7800000000	99434
7900000000	100419
8000000000	100113
8100000000	99852
8200000000	99598
8300000000	99439
8400000000	99663
8500000000	99741
8600000000	99771
8700000000	100373
8800000000	99892
8900000000	100231
9000000000	99698
9100000000	99854
9200000000	99713
9300000000	99856
9400000000	99874
9500000000	100225
9600000000	100024
9700000000	100137
9800000000	100096
9900000000	100115
10000000000	99852
10100000000	100276
10200000000	99720
10300000000	100317
10400000000	100368
10500000000	100700
10600000000	100162
10700000000	100621
10800000000	100365
10900000000	100010
11000000000	99946
11100000000	99427
11200000000	100445
11300000000	100136
11400000000	100414
11500000000	99846
11600000000	100615
11700000000	99633
11800000000	99985
11900000000	99855
12000000000	99761
12100000000	99412
12200000000	100007
12300000000	99409
12400000000	100627
12500000000	99440
12600000000	99686
12700000000	99466
12800000000	100030
12900000000	100267
13000000000	99464
13100000000	99970
13200000000	100198
13300000000	99680
13400000000	99535
13500000000	100081
13600000000	99605
13700000000	99899
13800000000	99496
13900000000	100943
14000000000	100293
14100000000	100134
14200000000	100139
14300000000	100821
14400000000	100204
14500000000	99922
14600000000	100214
14700000000	100349
14800000000	99652
14900000000	100096
15000000000	100213
15100000000	99604
15200000000	100514
15300000000	99977
15400000000	99992
15500000000	99851
15600000000	99526
15700000000	99748
15800000000	100012
15900000000	99706
16000000000	100066
16100000000	99985
16200000000	99821
16300000000	100075
16400000000	100326
16500000000	99685
16600000000	99830
16700000000	99664
16800000000	100083
16900000000	100349
17000000000	100131
17100000000	100757
17200000000	100051
17300000000	100191
17400000000	100215
17500000000	100769
17600000000	100049
17700000000	100114
17800000000	100638
17900000000	100225
18000000000	101078
18100000000	100163
18200000000	99759
18300000000	100027
18400000000	100444
18500000000	100252
18600000000	100106
18700000000	100001
18800000000	100149
18900000000	100191
19000000000	99576
19100000000	99898
19200000000	100172
19300000000	99848
19400000000	99623
19500000000	99808
19600000000	99128
19700000000	99464
19800000000	99877
19900000000	99727
20000000000	99998
20100000000	100093
20200000000	100078
20300000000	99866
20400000000	100130
20500000000	100029
20600000000	99737
20700000000	100207
20800000000	100048
20900000000	100726
21000000000	100343
21100000000	100441
21200000000	100637
21300000000	100504
21400000000	100064
21500000000	100592
21600000000	99805
21700000000	100200
21800000000	99840
21900000000	100170
22000000000	100078
22100000000	100046
22200000000	99812
22300000000	99829
22400000000	99576
22500000000	100018
22600000000	99794
22700000000	100335
22800000000	99370
22900000000	99713
23000000000	99679
23100000000	99194
23200000000	100009
23300000000	99744
23400000000	99697
23500000000	99686
23600000000	100021
23700000000	100303
23800000000	99993
23900000000	100309
24000000000	99772
24100000000	100335
24200000000	100333
24300000000	100415
24400000000	100398
24500000000	100136
24600000000	100131
24700000000	99593
24800000000	100543
24900000000	100290
25000000000	99974
25100000000	98398
25200000000	97595
25300000000	96984
25400000000	97126
25500000000	96552
25600000000	96279
25700000000	96584
25800000000	96156
25900000000	96435
26000000000	95945
26100000000	96102
26200000000	96687
26300000000	96041
26400000000	96547
26500000000	96164
26600000000	95786
26700000000	95724
26800000000	95937
26900000000	96011
27000000000	95995
27100000000	96202
27200000000	96305
27300000000	96164
27400000000	96496
27500000000	96496
27600000000	96460
27700000000	96388
27800000000	96866
27900000000	95969
28000000000	96478
28100000000	96956
28200000000	96142
28300000000	96670
28400000000	96674
28500000000	96327
28600000000	96501
28700000000	96192
28800000000	96262
28900000000	96151
29000000000	96293
29100000000	95652
29200000000	96410
29300000000	95812
29400000000	96267
29500000000	96531
29600000000	95854
29700000000	96303
29800000000	95971
29900000000	95985
30000000000	95894
30100000000	95822
30200000000	95732
30300000000	96128
30400000000	96020
30500000000	96090
30600000000	95672
30700000000	96562
30800000000	96472
30900000000	96305
31000000000	96561
31100000000	96054
31200000000	96681
31300000000	96288
31400000000	96305
31500000000	96182
31600000000	97031
31700000000	96886
31800000000	97028
31900000000	96572
32000000000	96620
32100000000	96331
32200000000	96872
32300000000	97180
32400000000	97034
32500000000	96932
32600000000	96556
32700000000	96294
32800000000	96781
32900000000	96547
33000000000	95723
33100000000	96225
33200000000	96650
33300000000	96661
33400000000	96116
33500000000	95790
33600000000	96137
33700000000	95968
33800000000	95988
33900000000	96130
34000000000	96086
34100000000	95788
34200000000	96420
34300000000	96882
34400000000	96272
34500000000	96875
34600000000	96757
34700000000	96010
34800000000	96431
34900000000	96915
35000000000	96613
35100000000	97146
35200000000	96748
35300000000	96838
35400000000	96703
35500000000	96650
35600000000	96955
35700000000	96773
35800000000	97035
35900000000	96554
36000000000	96810
36100000000	96613
36200000000	96059
36300000000	96139
36400000000	96544
36500000000	96598
36600000000	96770
36700000000	96670
36800000000	96374
36900000000	96836
37000000000	96515
37100000000	96737
37200000000	95957
37300000000	96706
37400000000	96779
37500000000	96533
37600000000	96355
37700000000	96003
37800000000	96667
37900000000	96695
38000000000	96621
38100000000	96429
38200000000	96786
38300000000	95965
38400000000	96385
38500000000	96795
38600000000	96546
38700000000	96445
38800000000	96421
38900000000	96647
39000000000	96560
39100000000	97076
39200000000	96785
39300000000	96782
39400000000	96477
39500000000	96551
39600000000	97166
39700000000	96871
39800000000	96785
39900000000	96653
40000000000	96800
40100000000	96202
40200000000	96869
40300000000	97180
40400000000	96693
40500000000	96355
40600000000	96177
40700000000	96427
40800000000	96668
40900000000	96277
41000000000	96457
41100000000	95783
41200000000	96375
41300000000	96842
41400000000	96544
41500000000	96352
41600000000	96685
41700000000	96149
41800000000	96352
41900000000	96691
42000000000	97015
42100000000	96759
42200000000	97398
42300000000	96933
42400000000	96889
42500000000	96919
42600000000	96674
42700000000	96843
42800000000	96811
42900000000	96636
43000000000	96858
43100000000	96861
43200000000	96589
43300000000	97039
43400000000	96757
43500000000	96478
43600000000	96550
43700000000	96909
43800000000	97010
43900000000	96428
44000000000	96856
44100000000	95899
44200000000	96617
44300000000	96659
44400000000	96188
44500000000	96393
44600000000	96597
44700000000	96556
44800000000	96553
44900000000	96628
45000000000	96895
45100000000	97127
45200000000	96362
45300000000	96591
45400000000	97009
45500000000	97047
45600000000	96981
45700000000	97481
45800000000	96454
45900000000	96879
46000000000	97319
46100000000	97172
46200000000	97344
46300000000	96332
46400000000	96827
46500000000	96249
46600000000	96767
46700000000	97537
46800000000	96875
46900000000	96897
47000000000	96700
47100000000	96543
47200000000	97390
47300000000	96082
47400000000	96423
47500000000	96063
47600000000	96538
47700000000	96373
47800000000	96538
47900000000	96889
48000000000	96581
48100000000	96357
48200000000	96875
48300000000	96224
48400000000	97076
48500000000	96445
48600000000	96651
48700000000	96057
48800000000	96756
48900000000	96891
49000000000	96094
49100000000	97001
49200000000	97253
49300000000	97162
49400000000	97215
49500000000	96535
49600000000	96754
49700000000	97137
49800000000	97644
49900000000	96805
50000000000	98121
50100000000	99247
50200000000	100033
50300000000	100013
50400000000	99857
50500000000	100526
50600000000	99509
50700000000	99905
50800000000	99685
50900000000	99639
51000000000	99817
51100000000	99436
51200000000	99975
51300000000	99233
51400000000	99280
51500000000	99864
51600000000	98997
51700000000	99188
51800000000	99540
51900000000	99475
52000000000	99834
52100000000	99874
52200000000	100212
52300000000	99918
52400000000	100553
52500000000	99832
52600000000	100310
52700000000	99940
52800000000	99443
52900000000	100137
53000000000	100060
53100000000	99636
53200000000	99279
53300000000	100058
53400000000	100129
53500000000	99859
53600000000	100224
53700000000	99842
53800000000	100337
53900000000	100031
54000000000	100196
54100000000	99610
54200000000	100148
54300000000	99751
54400000000	99840
54500000000	99907
54600000000	99427
54700000000	99837
54800000000	99036
54900000000	99412
55000000000	99859
55100000000	99612
55200000000	99444
55300000000	99371
55400000000	99876
55500000000	99394
55600000000	98961
55700000000	100144
55800000000	99280
55900000000	99624
56000000000	99491
56100000000	100188
56200000000	99913
56300000000	99571
56400000000	100147
56500000000	99830
56600000000	99985
56700000000	100478
56800000000	100055
56900000000	99405
57000000000	100446
57100000000	100071
57200000000	100165
57300000000	99318
57400000000	99901
57500000000	99507
57600000000	99921
57700000000	99622
57800000000	99200
57900000000	100250
58000000000	99868
58100000000	99626
58200000000	99505
58300000000	99246
58400000000	99326
58500000000	99555
58600000000	99577
58700000000	100093
58800000000	99594
58900000000	100132
59000000000	99530
59100000000	99652
59200000000	99557
59300000000	99597
59400000000	99596
59500000000	100076
59600000000	99813
59700000000	99803
59800000000	99975
59900000000	100006
60000000000	99624
60100000000	100044
60200000000	99536
60300000000	100050
60400000000	100172
60500000000	100510
60600000000	99976
60700000000	100516
60800000000	100063
60900000000	99774
61000000000	99750
61100000000	99330
61200000000	100175
61300000000	100007
61400000000	100177
61500000000	99590
61600000000	100454
61700000000	99403
61800000000	99780
61900000000	99717
62000000000	99544
62100000000	99173
62200000000	99864
62300000000	99090
62400000000	100473
62500000000	99216
62600000000	99496
62700000000	99257
62800000000	99750
62900000000	100160
63000000000	99298
63100000000	99712
63200000000	100032
63300000000	99430
63400000000	99398
63500000000	99793
63600000000	99390
63700000000	99749
63800000000	99338
63900000000	100766
64000000000	100033
64100000000	99908
64200000000	99922
64300000000	100566
64400000000	100061
64500000000	99748
64600000000	100057
64700000000	100079
64800000000	99514
64900000000	99917
65000000000	100064
65100000000	99345
65200000000	100235
65300000000	99889
65400000000	99852
65500000000	99614
65600000000	99189
65700000000	99709
65800000000	99740
65900000000	99405
66000000000	99860
66100000000	99870
66200000000	99521
66300000000	99944
66400000000	100170
66500000000	99516
66600000000	99698
66700000000	99286
66800000000	100057
66900000000	99994
67000000000	100057
67100000000	100343
67200000000	99968
67300000000	99910
67400000000	100062
67500000000	100571
67600000000	99828
67700000000	99962
67800000000	100398
67900000000	100043
68000000000	100768
68100000000	100005
68200000000	99504
68300000000	99874
68400000000	100188
68500000000	99993
68600000000	99931
68700000000	99870
68800000000	99835
68900000000	100116
69000000000	99198
69100000000	99802
69200000000	99922
69300000000	99772
69400000000	99341
69500000000	99540
69600000000	98932
69700000000	99241
69800000000	99750
69900000000	99460
70000000000	99701
70100000000	100008
70200000000	99811
70300000000	99738
70400000000	99862
70500000000	99930
70600000000	99565
70700000000	99900
70800000000	99832
70900000000	100550
71000000000	100086
71100000000	100299
71200000000	100414
71300000000	100167
71400000000	99998
71500000000	100387
71600000000	99598
71700000000	100087
71800000000	99688
71900000000	99876
72000000000	99893
72100000000	99787
72200000000	99606
72300000000	99638
72400000000	99328
72500000000	99842
72600000000	99642
72700000000	100097
72800000000	99161
72900000000	99516
73000000000	99541
73100000000	98831
73200000000	99820
73300000000	99563
73400000000	99457
73500000000	99532
73600000000	99804
73700000000	100080
73800000000	99843
73900000000	100119
74000000000	99499
74100000000	100139
74200000000	100168
74300000000	100293
74400000000	100074
74500000000	99982
74600000000	99850
74700000000	99423
74800000000	100360
74900000000	100102
75000000000	99798
75100000000	98252
75200000000	97431
75300000000	96725
75400000000	96907
75500000000	96352
75600000000	96061
75700000000	96471
75800000000	95841
75900000000	96296
76000000000	95877
76100000000	95819
76200000000	96444
76300000000	95869
76400000000	96355
76500000000	96005
76600000000	95610
76700000000	95591
76800000000	95621
76900000000	95885
77000000000	95773
77100000000	96002
77200000000	96124
77300000000	95862
77400000000	96352
77500000000	96312
77600000000	96246
77700000000	96115
77800000000	96711
77900000000	95741
78000000000	96217
78100000000	96870
78200000000	95910
78300000000	96455
78400000000	96593
78500000000	96082
78600000000	96325
78700000000	95996
78800000000	96058
78900000000	95981
79000000000	96118
79100000000	95439
79200000000	96122
79300000000	95703
79400000000	96025
79500000000	96338
79600000000	95600
79700000000	96082
79800000000	95860
79900000000	95748
80000000000	95687
80100000000	95512
80200000000	95584
80300000000	96059
80400000000	95752
80500000000	95917
80600000000	95359
80700000000	96411
80800000000	96278
80900000000	96043
81000000000	96385
81100000000	95922
81200000000	96462
81300000000	96040
81400000000	96152
81500000000	95963
81600000000	96870
81700000000	96583
81800000000	96861
81900000000	96456
82000000000	96369
82100000000	96126
82200000000	96712
82300000000	96973
82400000000	96836
82500000000	96644
82600000000	96444
82700000000	96075
82800000000	96726
82900000000	96138
83000000000	95618
83100000000	96055
83200000000	96399
83300000000	96418
83400000000	96021
83500000000	95488
83600000000	95988
83700000000	95716
83800000000	95867
83900000000	95949
84000000000	95786
84100000000	95643
84200000000	96209
84300000000	96684
84400000000	96085
84500000000	96573
84600000000	96580
84700000000	95824
84800000000	96225
84900000000	96804
85000000000	96286
85100000000	96982
85200000000	96495
85300000000	96674
85400000000	96519
85500000000	96384
85600000000	96858
85700000000	96523
85800000000	96857
85900000000	96373
86000000000	96552
86100000000	96501
86200000000	95785
86300000000	96026
86400000000	96258
86500000000	96419
86600000000	96556
86700000000	96481
86800000000	96111
86900000000	96691
87000000000	96243
87100000000	96523
87200000000	95791
87300000000	96494
87400000000	96702
87500000000	96210
87600000000	96178
87700000000	95856
87800000000	96302
87900000000	96455
88000000000	96611
88100000000	96199
88200000000	96505
88300000000	95788
88400000000	96223
88500000000	96490
88600000000	96469
88700000000	96088
88800000000	96287
88900000000	96430
89000000000	96443
89100000000	96893
89200000000	96486
89300000000	96550
89400000000	96286
89500000000	96338
89600000000	97072
89700000000	96573
89800000000	96632
89900000000	96418
90000000000	96569
90100000000	96072
90200000000	96642
90300000000	97072
90400000000	96382
90500000000	96266
90600000000	96025
90700000000	96115
90800000000	96513
90900000000	96012
91000000000	96363
91100000000	95555
91200000000	96093
91300000000	96728
91400000000	96261
91500000000	96091
91600000000	96571
91700000000	95909
91800000000	96098
91900000000	96608
92000000000	96709
92100000000	96600
92200000000	97177
92300000000	96700
92400000000	96721
92500000000	96763
92600000000	96497
92700000000	96607
92800000000	96665
92900000000	96336
93000000000	96533
93100000000	96763
93200000000	96420
93300000000	96798
93400000000	96544
93500000000	96287
93600000000	96365
93700000000	96652
93800000000	96883
93900000000	96279
94000000000	96545
94100000000	95748
94200000000	96439
94300000000	96457
94400000000	95992
94500000000	96190
94600000000	96374
94700000000	96429
94800000000	96261
94900000000	96391
95000000000	96781
95100000000	96843
95200000000	96165
95300000000	96424
95400000000	96864
95500000000	96838
95600000000	96662
95700000000	97338
95800000000	96225
95900000000	96686
96000000000	97196
96100000000	96884
96200000000	97161
96300000000	96125
96400000000	96652
96500000000	96006
96600000000	96608
96700000000	97229
96800000000	96758
96900000000	96630
97000000000	96546
97100000000	96321
97200000000	97262
97300000000	95909
97400000000	96161
97500000000	95823
97600000000	96330
97700000000	96244
97800000000	96230
97900000000	96820
98000000000	96260
98100000000	96079
98200000000	96812
98300000000	96003
98400000000	96886
98500000000	96242
98600000000	96548
98700000000	95762
98800000000	96526
98900000000	96710
99000000000	95976
99100000000	96707
99200000000	96997
99300000000	97047
99400000000	97011
99500000000	96404
99600000000	96512
99700000000	96908
99800000000	97239
99900000000	96789
