"Time (ps)"	"Counts per bin"
0	800664
100000000	801516
200000000	801617
300000000	801923
400000000	801887
500000000	802103
600000000	802462
700000000	802571
800000000	802262
900000000	801669
1000000000	804195
1100000000	801679
1200000000	801846
1300000000	802824
1400000000	802787
1500000000	802440
1600000000	803280
1700000000	800660
1800000000	803231
1900000000	803152
2000000000	802265
2100000000	801063
2200000000	802824
2300000000	804164
2400000000	803145
2500000000	802496
2600000000	803691
2700000000	802984
2800000000	803849
2900000000	802739
3000000000	803115
3100000000	803185
3200000000	803292
3300000000	803337
3400000000	802208
3500000000	801966
3600000000	801558
3700000000	802749
3800000000	802884
3900000000	802688
4000000000	803115
4100000000	802529
4200000000	801990
4300000000	803440
4400000000	802938
4500000000	803030
4600000000	801006
4700000000	803506
4800000000	801821
4900000000	802568
5000000000	804600
5100000000	805029
5200000000	802793
5300000000	804006
5400000000	802175
5500000000	803047
5600000000	803058
5700000000	803979
5800000000	802656
5900000000	803378
6000000000	803137
6100000000	804382
6200000000	803037
6300000000	804147
6400000000	802270
6500000000	801088
6600000000	803363
6700000000	803392
6800000000	802492
6900000000	802686
7000000000	803343
7100000000	802612
7200000000	802106
7300000000	803377
7400000000	802839
7500000000	802904
7600000000	803075
7700000000	803077
7800000000	803260
7900000000	805300
8000000000	803700
8100000000	802524
8200000000	803076
8300000000	803115
8400000000	802578
8500000000	802756
8600000000	802141
8700000000	802707
8800000000	803406
8900000000	801259
9000000000	804027
9100000000	802011
9200000000	803071
9300000000	804604
9400000000	802787
9500000000	804258
9600000000	803219
9700000000	802927
9800000000	803687
9900000000	804563
10000000000	802126
10100000000	803940
10200000000	802297
10300000000	801833
10400000000	803493
10500000000	803231
10600000000	802842
10700000000	802074
10800000000	802974
10900000000	802440
11000000000	803713
11100000000	804585
11200000000	804261
11300000000	803198
11400000000	803560
11500000000	803961
11600000000	802412
11700000000	802897
11800000000	803377
11900000000	803517
12000000000	803019
12100000000	803276
12200000000	801210
12300000000	802268
12400000000	803075
12500000000	803157
12600000000	803739
12700000000	803607
12800000000	802484
12900000000	803777
13000000000	803565
13100000000	802926
13200000000	803202
13300000000	802581
13400000000	802598
13500000000	803108
13600000000	802682
13700000000	802587
13800000000	802828
13900000000	803520
14000000000	802593
14100000000	801913
14200000000	802757
14300000000	803205
14400000000	803884
14500000000	802876
14600000000	803358
14700000000	803756
14800000000	804040
14900000000	803974
15000000000	801892
15100000000	803079
15200000000	803643
15300000000	804538
15400000000	802950
15500000000	803852
15600000000	803471
15700000000	801587
15800000000	802705
15900000000	804264
16000000000	803259
16100000000	804854
16200000000	804269
16300000000	803412
16400000000	802982
16500000000	803466
16600000000	802180
16700000000	802079
16800000000	802533
16900000000	802233
17000000000	805241
17100000000	804262
17200000000	803323
17300000000	801134
17400000000	803098
17500000000	802405
17600000000	803355
17700000000	803852
17800000000	804059
17900000000	802513
18000000000	801320
18100000000	803770
18200000000	803003
18300000000	804216
18400000000	803673
18500000000	802139
18600000000	803770
18700000000	801581
18800000000	802280
18900000000	803672
19000000000	801911
19100000000	803271
19200000000	803442
19300000000	801576
19400000000	802539
19500000000	802943
19600000000	803123
19700000000	802939
19800000000	803799
19900000000	801068
20000000000	802266
20100000000	802722
20200000000	802275
20300000000	802967
20400000000	803024
20500000000	802650
20600000000	802637
20700000000	801835
20800000000	800985
20900000000	801959
21000000000	803566
21100000000	801999
21200000000	802237
21300000000	802378
21400000000	801939
21500000000	802074
21600000000	802063
21700000000	802824
21800000000	802721
21900000000	803436
22000000000	802191
22100000000	802690
22200000000	801018
22300000000	803279
22400000000	800450
22500000000	801465
22600000000	801196
22700000000	801738
22800000000	802156
22900000000	800873
23000000000	803223
23100000000	800898
23200000000	801394
23300000000	803099
23400000000	801883
23500000000	802281
23600000000	801085
23700000000	802786
23800000000	801918
23900000000	800103
24000000000	801819
24100000000	801193
24200000000	801412
24300000000	801551
24400000000	801661
24500000000	800651
24600000000	801289
24700000000	801684
24800000000	802463
24900000000	802261
25000000000	801096
25100000000	799699
25200000000	799948
25300000000	799217
25400000000	799405
25500000000	798011
25600000000	801006
25700000000	799725
25800000000	798653
25900000000	799952
26000000000	799288
26100000000	796576
26200000000	797248
26300000000	798166
26400000000	799880
26500000000	798921
26600000000	798544
26700000000	799415
26800000000	798485
26900000000	797423
27000000000	798967
27100000000	799567
27200000000	797496
27300000000	797929
27400000000	798965
27500000000	797933
27600000000	797907
27700000000	797764
27800000000	799124
27900000000	798201
28000000000	799149
28100000000	798965
28200000000	798053
28300000000	797970
28400000000	799174
28500000000	796663
28600000000	799259
28700000000	798649
28800000000	798275
28900000000	797537
29000000000	798325
29100000000	799039
29200000000	798593
29300000000	798734
29400000000	797808
29500000000	799101
29600000000	797947
29700000000	798962
29800000000	795805
29900000000	798251
30000000000	797127
30100000000	798641
30200000000	799597
30300000000	798061
30400000000	797993
30500000000	796977
30600000000	796314
30700000000	797740
30800000000	798217
30900000000	798073
31000000000	796685
31100000000	796727
31200000000	796209
31300000000	797765
31400000000	797625
31500000000	797391
31600000000	799409
31700000000	798260
31800000000	798354
31900000000	796668
32000000000	797777
32100000000	797156
32200000000	796722
32300000000	798054
32400000000	797596
32500000000	798079
32600000000	798214
32700000000	796688
32800000000	797209
32900000000	797814
33000000000	797700
33100000000	797260
33200000000	796942
33300000000	796581
33400000000	796611
33500000000	796879
33600000000	797359
33700000000	797845
33800000000	797459
33900000000	797894
34000000000	796322
34100000000	796352
34200000000	799077
34300000000	796983
34400000000	797574
34500000000	797011
34600000000	796777
34700000000	797224
34800000000	798000
34900000000	796319
35000000000	796345
35100000000	795940
35200000000	797050
35300000000	796586
35400000000	796914
35500000000	797539
35600000000	797216
35700000000	797112
35800000000	796336
35900000000	796225
36000000000	798154
36100000000	798054
36200000000	797596
36300000000	797759
36400000000	797416
36500000000	797662
36600000000	796620
36700000000	797295
36800000000	796445
36900000000	797915
37000000000	797229
37100000000	795514
37200000000	796853
37300000000	797713
37400000000	797777
37500000000	795984
37600000000	797296
37700000000	797661
37800000000	798401
37900000000	796540
38000000000	796507
38100000000	796363
38200000000	798613
38300000000	796922
38400000000	796780
38500000000	796967
38600000000	797010
38700000000	794700
38800000000	797190
38900000000	796247
39000000000	797672
39100000000	794787
39200000000	796394
39300000000	796564
39400000000	796208
39500000000	795952
39600000000	796887
39700000000	796939
39800000000	796617
39900000000	796460
40000000000	795988
40100000000	798421
40200000000	797312
40300000000	796209
40400000000	796694
40500000000	797121
40600000000	798243
40700000000	796820
40800000000	796616
40900000000	795308
41000000000	796650
41100000000	797170
41200000000	795045
41300000000	795823
41400000000	796209
41500000000	794819
41600000000	795944
41700000000	795516
41800000000	796751
41900000000	796782
42000000000	797011
42100000000	796216
42200000000	796607
42300000000	796771
42400000000	796959
42500000000	797025
42600000000	795429
42700000000	795911
42800000000	796093
42900000000	797377
43000000000	796083
43100000000	795527
43200000000	795194
43300000000	795061
43400000000	796640
43500000000	794858
43600000000	797581
43700000000	795387
43800000000	796425
43900000000	795189
44000000000	797376
44100000000	796005
44200000000	794305
44300000000	796407
44400000000	795656
44500000000	797601
44600000000	794912
44700000000	796097
44800000000	795747
44900000000	796510
45000000000	794537
45100000000	795823
45200000000	795490
45300000000	796487
45400000000	795878
45500000000	796469
45600000000	797383
45700000000	795117
45800000000	796234
45900000000	796127
46000000000	795325
46100000000	795703
46200000000	797208
46300000000	796631
46400000000	796016
46500000000	797254
46600000000	797212
46700000000	796940
46800000000	795913
46900000000	795607
47000000000	796818
47100000000	795094
47200000000	796618
47300000000	795851
47400000000	795700
47500000000	794731
47600000000	798235
47700000000	797855
47800000000	796795
47900000000	795813
48000000000	796231
48100000000	795684
48200000000	796328
48300000000	796220
48400000000	797197
48500000000	794803
48600000000	796051
48700000000	796374
48800000000	795399
48900000000	795601
49000000000	796504
49100000000	796273
49200000000	796086
49300000000	796097
49400000000	796351
49500000000	796664
49600000000	796564
49700000000	796943
49800000000	796341
49900000000	795477
50000000000	797961
50100000000	799146
50200000000	798973
50300000000	799330
50400000000	799483
50500000000	799264
50600000000	800093
50700000000	800033
50800000000	799981
50900000000	799028
51000000000	801787
51100000000	799050
51200000000	799115
51300000000	800428
51400000000	800185
51500000000	800028
51600000000	800629
51700000000	798291
51800000000	800459
51900000000	800520
52000000000	799842
52100000000	798476
52200000000	800453
52300000000	801392
52400000000	800750
52500000000	799817
52600000000	801189
52700000000	800186
52800000000	801541
52900000000	799972
53000000000	800892
53100000000	800640
53200000000	800803
53300000000	800895
53400000000	799934
53500000000	799216
53600000000	799102
53700000000	800195
53800000000	800177
53900000000	800386
54000000000	800322
54100000000	800268
54200000000	799211
54300000000	800872
54400000000	800494
54500000000	800563
54600000000	798523
54700000000	800943
54800000000	799298
54900000000	800134
55000000000	802082
55100000000	802345
55200000000	800212
55300000000	801619
55400000000	799834
55500000000	800080
55600000000	800798
55700000000	801527
55800000000	799993
55900000000	800722
56000000000	800826
56100000000	801807
56200000000	800604
56300000000	801315
56400000000	799849
56500000000	798394
56600000000	801138
56700000000	800638
56800000000	800284
56900000000	799729
57000000000	801016
57100000000	799951
57200000000	799603
57300000000	800812
57400000000	800260
57500000000	800371
57600000000	800609
57700000000	800585
57800000000	800730
57900000000	802769
58000000000	801267
58100000000	799998
58200000000	800431
58300000000	800617
58400000000	799945
58500000000	800495
58600000000	799417
58700000000	800294
58800000000	800673
58900000000	798982
59000000000	801385
59100000000	799430
59200000000	800399
59300000000	802216
59400000000	800348
59500000000	801601
59600000000	800716
59700000000	800751
59800000000	801068
59900000000	801654
60000000000	799745
60100000000	801209
60200000000	800078
60300000000	799117
60400000000	800974
60500000000	800512
60600000000	800374
60700000000	799511
60800000000	800617
60900000000	799846
61000000000	801222
61100000000	801892
61200000000	801781
61300000000	800622
61400000000	801073
61500000000	801134
61600000000	800335
61700000000	800233
61800000000	800627
61900000000	801226
62000000000	800618
62100000000	800453
62200000000	798730
62300000000	799350
62400000000	800890
62500000000	800443
62600000000	801523
62700000000	800769
62800000000	800219
62900000000	801067
63000000000	801084
63100000000	800236
63200000000	800639
63300000000	800157
63400000000	800016
63500000000	800357
63600000000	800319
63700000000	799865
63800000000	800724
63900000000	800776
64000000000	800005
64100000000	799417
64200000000	800171
64300000000	800595
64400000000	801357
64500000000	800656
64600000000	800708
64700000000	801006
64800000000	801737
64900000000	801324
65000000000	799383
65100000000	800231
65200000000	801248
65300000000	801889
65400000000	800318
65500000000	801235
65600000000	800820
65700000000	799303
65800000000	800056
65900000000	801611
66000000000	800824
66100000000	802512
66200000000	801475
66300000000	801165
66400000000	800389
66500000000	800489
66600000000	800015
66700000000	799639
66800000000	799779
66900000000	799649
67000000000	802818
67100000000	801686
67200000000	800696
67300000000	798705
67400000000	800670
67500000000	799873
67600000000	800802
67700000000	801238
67800000000	801677
67900000000	799730
68000000000	798959
68100000000	801115
68200000000	800513
68300000000	801692
68400000000	801299
68500000000	799385
68600000000	801124
68700000000	799100
68800000000	799653
68900000000	801280
69000000000	799201
69100000000	800664
69200000000	801078
69300000000	799037
69400000000	799842
69500000000	800772
69600000000	800299
69700000000	800307
69800000000	801536
69900000000	798716
70000000000	799428
70100000000	800305
70200000000	799569
70300000000	800467
70400000000	800370
70500000000	800338
70600000000	800180
70700000000	799306
70800000000	798677
70900000000	799200
71000000000	801079
71100000000	799212
71200000000	799719
71300000000	799940
71400000000	799529
71500000000	799489
71600000000	799774
71700000000	800013
71800000000	800048
71900000000	800878
72000000000	799763
72100000000	800338
72200000000	798501
72300000000	800831
72400000000	797708
72500000000	798693
72600000000	798669
72700000000	799298
72800000000	799492
72900000000	798571
73000000000	800622
73100000000	798310
73200000000	798936
73300000000	800705
73400000000	799210
73500000000	799816
73600000000	798652
73700000000	800317
73800000000	799321
73900000000	797591
74000000000	799244
74100000000	798538
74200000000	799051
74300000000	798674
74400000000	799213
74500000000	797965
74600000000	799102
74700000000	798829
74800000000	800128
74900000000	799650
75000000000	798762
75100000000	796887
75200000000	797782
75300000000	796450
75400000000	796916
75500000000	795471
75600000000	798472
75700000000	797291
75800000000	796014
75900000000	797639
76000000000	796662
76100000000	794266
76200000000	794324
76300000000	795769
76400000000	797186
76500000000	796666
76600000000	795952
76700000000	796829
76800000000	795918
76900000000	794961
77000000000	796581
77100000000	796866
77200000000	795175
77300000000	795527
77400000000	796399
77500000000	795191
77600000000	795546
77700000000	795342
77800000000	796355
77900000000	795783
78000000000	796510
78100000000	796548
78200000000	795779
78300000000	795244
78400000000	796685
78500000000	794257
78600000000	796771
78700000000	796094
78800000000	795703
78900000000	795159
79000000000	796173
79100000000	796262
79200000000	796144
79300000000	796321
79400000000	795246
79500000000	796582
79600000000	795276
79700000000	796469
79800000000	793356
79900000000	795793
80000000000	794829
80100000000	795945
80200000000	796883
80300000000	795527
80400000000	795802
80500000000	794259
80600000000	794033
80700000000	795118
80800000000	795646
80900000000	795636
81000000000	794165
81100000000	794039
81200000000	793786
81300000000	795010
81400000000	795445
81500000000	794776
81600000000	796940
81700000000	795466
81800000000	795955
81900000000	794463
82000000000	794749
82100000000	794747
82200000000	794252
82300000000	795510
82400000000	795175
82500000000	795092
82600000000	795943
82700000000	794348
82800000000	794640
82900000000	795099
83000000000	795192
83100000000	795026
83200000000	793978
83300000000	794671
83400000000	793764
83500000000	794684
83600000000	794512
83700000000	795255
83800000000	795053
83900000000	795524
84000000000	793562
84100000000	793774
84200000000	796953
84300000000	794271
84400000000	795042
84500000000	794611
84600000000	794239
84700000000	794641
84800000000	795770
84900000000	793768
85000000000	793796
85100000000	793512
85200000000	794342
85300000000	794186
85400000000	794174
85500000000	795193
85600000000	794599
85700000000	794596
85800000000	793831
85900000000	793808
86000000000	795441
86100000000	795354
86200000000	795191
86300000000	795486
86400000000	794780
86500000000	795177
86600000000	794010
86700000000	794878
86800000000	793846
86900000000	795066
87000000000	794959
87100000000	793048
87200000000	794544
87300000000	794971
87400000000	795283
87500000000	793557
87600000000	794735
87700000000	795079
87800000000	795798
87900000000	794300
88000000000	793867
88100000000	794169
88200000000	795724
88300000000	794663
88400000000	794279
88500000000	794322
88600000000	794316
88700000000	792287
88800000000	794690
88900000000	793754
89000000000	795045
89100000000	792338
89200000000	793971
89300000000	793676
89400000000	793931
89500000000	793599
89600000000	794011
89700000000	794455
89800000000	794002
89900000000	794077
90000000000	793455
90100000000	795714
90200000000	794773
90300000000	794043
90400000000	793770
90500000000	794515
90600000000	795705
90700000000	794409
90800000000	794134
90900000000	792640
91000000000	794172
91100000000	794841
91200000000	792305
91300000000	793333
91400000000	793662
91500000000	792481
91600000000	793369
91700000000	793296
91800000000	794162
91900000000	794177
92000000000	794424
92100000000	793687
92200000000	794085
92300000000	794201
92400000000	794678
92500000000	794106
92600000000	793140
92700000000	793291
92800000000	793843
92900000000	794440
93000000000	793716
93100000000	792978
93200000000	792620
93300000000	792505
93400000000	794198
93500000000	792504
93600000000	795066
93700000000	793089
93800000000	793485
93900000000	792890
94000000000	794423
94100000000	794005
94200000000	791539
94300000000	794067
94400000000	792988
94500000000	795158
94600000000	792182
94700000000	793787
94800000000	792999
94900000000	794038
95000000000	792149
95100000000	793223
95200000000	793020
95300000000	793867
95400000000	793472
95500000000	794003
95600000000	794952
95700000000	792292
95800000000	793748
95900000000	793787
96000000000	792572
96100000000	793510
96200000000	794416
96300000000	794091
96400000000	793567
96500000000	794761
96600000000	794555
96700000000	794320
96800000000	793661
96900000000	792986
97000000000	794263
97100000000	792935
97200000000	793700
97300000000	793592
97400000000	793093
97500000000	792042
97600000000	795660
97700000000	795361
97800000000	794384
97900000000	793289
98000000000	793641
98100000000	793167
98200000000	793715
98300000000	793863
98400000000	794719
98500000000	792133
98600000000	793603
98700000000	793696
98800000000	792873
98900000000	792967
99000000000	794062
99100000000	793796
99200000000	793586
99300000000	793818
99400000000	793643
99500000000	794202
99600000000	793993
99700000000	794476
99800000000	793679
99900000000	793203
