"Time (ps)"	"Counts per bin"
0	45925
1000000	45280
2000000	45420
3000000	45746
4000000	45452
5000000	45640
6000000	45561
7000000	45661
8000000	45464
9000000	45187
10000000	45207
11000000	45637
12000000	45344
13000000	46033
14000000	45580
15000000	45635
16000000	45356
17000000	45501
18000000	45381
19000000	45387
20000000	45872
21000000	45201
22000000	45391
23000000	45736
24000000	45599
25000000	45289
26000000	45463
27000000	45257
28000000	45570
29000000	45808
30000000	45289
31000000	45495
32000000	45289
33000000	45487
34000000	45277
35000000	45147
36000000	45440
37000000	45660
38000000	45467
39000000	44990
40000000	45476
41000000	45222
42000000	45089
43000000	45678
44000000	45605
45000000	45239
46000000	45198
47000000	45114
48000000	45409
49000000	45658
50000000	45216
51000000	45681
52000000	44858
53000000	44677
54000000	45161
55000000	45136
56000000	45115
57000000	44851
58000000	45293
59000000	45190
60000000	45407
61000000	45329
62000000	44910
63000000	45125
64000000	44900
65000000	45080
66000000	45321
67000000	44978
68000000	44824
69000000	45348
70000000	45242
71000000	45042
72000000	45230
73000000	45120
74000000	45359
75000000	45139
76000000	45078
77000000	45363
78000000	45140
79000000	45386
80000000	44880
81000000	44902
82000000	45206
83000000	45063
84000000	44859
85000000	45067
86000000	44433
87000000	45110
88000000	44888
89000000	44963
90000000	45306
91000000	44979
92000000	45173
93000000	44885
94000000	44933
95000000	44912
96000000	45040
97000000	45009
98000000	44986
99000000	45309
100000000	45181
101000000	45063
102000000	45198
103000000	44511
104000000	44732
105000000	44733
106000000	44822
107000000	44472
108000000	44596
109000000	44689
110000000	45262
111000000	44596
112000000	45011
113000000	44937
114000000	45010
115000000	44998
116000000	44896
117000000	44717
118000000	44935
119000000	44402
120000000	44867
121000000	44697
122000000	45253
123000000	44954
124000000	45059
125000000	44969
126000000	44779
127000000	44989
128000000	44565
129000000	44638
130000000	45298
131000000	44439
132000000	44437
133000000	44918
134000000	44460
135000000	45123
136000000	44643
137000000	44903
138000000	44633
139000000	44780
140000000	44791
141000000	44999
142000000	44845
143000000	44794
144000000	44722
145000000	44767
146000000	44770
147000000	44748
148000000	44691
149000000	44919
150000000	44545
151000000	44985
152000000	45041
153000000	45003
154000000	44529
155000000	44658
156000000	44904
157000000	44778
158000000	44419
159000000	45052
160000000	44615
161000000	44606
162000000	44580
163000000	44762
164000000	44565
165000000	44617
166000000	44503
167000000	44841
168000000	44892
169000000	44949
170000000	44669
171000000	44275
172000000	44898
173000000	44449
174000000	44604
175000000	44177
176000000	44626
177000000	44461
178000000	44247
179000000	44562
180000000	44530
181000000	44857
182000000	44618
183000000	44757
184000000	44791
185000000	44482
186000000	44117
187000000	44428
188000000	44306
189000000	44827
190000000	44364
191000000	44722
192000000	44966
193000000	44624
194000000	44291
195000000	44114
196000000	44585
197000000	44765
198000000	44295
199000000	44671
200000000	44480
201000000	44555
202000000	44683
203000000	44567
204000000	44726
205000000	44617
206000000	44657
207000000	44806
208000000	44435
209000000	44555
210000000	44646
211000000	44187
212000000	44362
213000000	44315
214000000	44467
215000000	44563
216000000	44602
217000000	44633
218000000	44693
219000000	44225
220000000	44358
221000000	44436
222000000	44485
223000000	44752
224000000	44178
225000000	44693
226000000	44654
227000000	44490
228000000	44758
229000000	44588
230000000	44452
231000000	44201
232000000	44542
233000000	44596
234000000	44426
235000000	44689
236000000	44998
237000000	44479
238000000	44482
239000000	44385
240000000	44431
241000000	44278
242000000	44455
243000000	44533
244000000	44158
245000000	44213
246000000	44341
247000000	44685
248000000	44323
249000000	44305
250000000	44490
251000000	44265
252000000	45023
253000000	44726
254000000	44418
255000000	44354
256000000	44342
257000000	44534
258000000	43996
259000000	44186
260000000	44326
261000000	44619
262000000	44872
263000000	44358
264000000	44406
265000000	44251
266000000	44827
267000000	43788
268000000	44148
269000000	44336
270000000	44468
271000000	44181
272000000	44403
273000000	44519
274000000	44737
275000000	44252
276000000	44343
277000000	44371
278000000	44274
279000000	44262
280000000	44550
281000000	44289
282000000	44653
283000000	44727
284000000	44395
285000000	44221
286000000	44349
287000000	44307
288000000	44561
289000000	44252
290000000	44420
291000000	44365
292000000	44403
293000000	44122
294000000	44224
295000000	44188
296000000	44082
297000000	44208
298000000	44049
299000000	44606
300000000	44064
301000000	44171
302000000	44178
303000000	44078
304000000	44004
305000000	44289
306000000	44416
307000000	44601
308000000	44565
309000000	44399
310000000	44493
311000000	44439
312000000	44430
313000000	44478
314000000	44148
315000000	44101
316000000	44225
317000000	44014
318000000	44485
319000000	44175
320000000	44569
321000000	44631
322000000	44214
323000000	44177
324000000	44069
325000000	44327
326000000	44050
327000000	44310
328000000	44487
329000000	44529
330000000	44223
331000000	44367
332000000	44259
333000000	44327
334000000	44366
335000000	44272
336000000	43927
337000000	44472
338000000	44297
339000000	43981
340000000	44277
341000000	44512
342000000	44510
343000000	44183
344000000	44142
345000000	44196
346000000	44075
347000000	44541
348000000	43945
349000000	44088
350000000	44179
351000000	43697
352000000	44198
353000000	44173
354000000	44222
355000000	44482
356000000	43976
357000000	44432
358000000	44089
359000000	44144
360000000	44530
361000000	44256
362000000	44078
363000000	44232
364000000	44544
365000000	44392
366000000	43999
367000000	44445
368000000	44367
369000000	44362
370000000	44084
371000000	44359
372000000	44500
373000000	43852
374000000	43722
375000000	44468
376000000	44410
377000000	44337
378000000	44196
379000000	43838
380000000	44120
381000000	44166
382000000	44029
383000000	44409
384000000	44679
385000000	44169
386000000	44042
387000000	44166
388000000	44160
389000000	44198
390000000	43988
391000000	44184
392000000	43981
393000000	44446
394000000	44181
395000000	44090
396000000	43570
397000000	44198
398000000	44446
399000000	44303
400000000	44114
401000000	44180
402000000	44212
403000000	44219
404000000	44739
405000000	44240
406000000	43778
407000000	43997
408000000	43901
409000000	44515
410000000	44040
411000000	44123
412000000	44307
413000000	43940
414000000	44295
415000000	44220
416000000	44129
417000000	43936
418000000	44124
419000000	44046
420000000	44010
421000000	44200
422000000	44513
423000000	43807
424000000	44115
425000000	44052
426000000	44116
427000000	43840
428000000	43960
429000000	43734
430000000	44014
431000000	43947
432000000	44269
433000000	44315
434000000	44080
435000000	44070
436000000	43688
437000000	44194
438000000	44194
439000000	44056
440000000	44363
441000000	44489
442000000	44290
443000000	44228
444000000	44137
445000000	44194
446000000	44362
447000000	44431
448000000	44367
449000000	43885
450000000	43981
451000000	43787
452000000	44121
453000000	44204
454000000	44226
455000000	44257
456000000	44412
457000000	44157
458000000	44253
459000000	44225
460000000	44313
461000000	44094
462000000	44054
463000000	44046
464000000	44409
465000000	43870
466000000	44340
467000000	43671
468000000	44419
469000000	44106
470000000	44158
471000000	44184
472000000	44198
473000000	44088
474000000	44100
475000000	44419
476000000	44455
477000000	44232
478000000	44316
479000000	43722
480000000	44157
481000000	44317
482000000	43950
483000000	44238
484000000	44205
485000000	44012
486000000	44248
487000000	44026
488000000	44375
489000000	44196
490000000	44253
491000000	44105
492000000	43655
493000000	44204
494000000	43918
495000000	44077
496000000	43889
497000000	43823
498000000	44219
499000000	43941
500000000	44219
501000000	44190
502000000	43913
503000000	44120
504000000	43912
505000000	44399
506000000	44076
507000000	43878
508000000	44463
509000000	43735
510000000	44265
511000000	43953
512000000	44046
513000000	44073
514000000	43723
515000000	44064
516000000	44117
517000000	44227
518000000	43956
519000000	44242
520000000	43982
521000000	44021
522000000	44043
523000000	43904
524000000	44326
525000000	44368
526000000	43974
527000000	43536
528000000	44040
529000000	43932
530000000	44259
531000000	44042
532000000	43743
533000000	44149
534000000	43948
535000000	44157
536000000	43963
537000000	44246
538000000	44394
539000000	44120
540000000	44422
541000000	44211
542000000	43928
543000000	43702
544000000	44133
545000000	44055
546000000	44000
547000000	43924
548000000	44201
549000000	44109
550000000	43730
551000000	44130
552000000	44244
553000000	44536
554000000	44333
555000000	44307
556000000	44082
557000000	44272
558000000	43981
559000000	44057
560000000	44292
561000000	43885
562000000	43944
563000000	43991
564000000	44014
565000000	44272
566000000	43961
567000000	44049
568000000	43875
569000000	43430
570000000	43740
571000000	43978
572000000	43664
573000000	44040
574000000	44019
575000000	44116
576000000	44101
577000000	43858
578000000	43990
579000000	44284
580000000	43809
581000000	43862
582000000	43831
583000000	43963
584000000	43847
585000000	43961
586000000	44326
587000000	43788
588000000	44308
589000000	43642
590000000	43968
591000000	44349
592000000	43903
593000000	43981
594000000	43781
595000000	43702
596000000	43897
597000000	43950
598000000	44048
599000000	44014
600000000	43927
601000000	43868
602000000	43954
603000000	43821
604000000	43827
605000000	43833
606000000	43960
607000000	43668
608000000	44751
609000000	44343
610000000	43864
611000000	44159
612000000	43818
613000000	43897
614000000	44035
615000000	43826
616000000	44164
617000000	44024
618000000	43923
619000000	44027
620000000	43654
621000000	43995
622000000	43932
623000000	43874
624000000	43990
625000000	43695
626000000	44025
627000000	44009
628000000	43719
629000000	43682
630000000	44067
631000000	43678
632000000	44377
633000000	43898
634000000	44027
635000000	43992
636000000	44212
637000000	44428
638000000	44341
639000000	43918
640000000	43727
641000000	43918
642000000	44230
643000000	44178
644000000	43713
645000000	43930
646000000	43802
647000000	43880
648000000	44004
649000000	44397
650000000	43503
651000000	44212
652000000	44354
653000000	43908
654000000	43875
655000000	43557
656000000	43669
657000000	43928
658000000	43772
659000000	43416
660000000	43970
661000000	43689
662000000	44062
663000000	43967
664000000	44072
665000000	43731
666000000	43998
667000000	44425
668000000	44171
669000000	43853
670000000	44048
671000000	43847
672000000	43692
673000000	43966
674000000	43862
675000000	44147
676000000	43833
677000000	43896
678000000	44275
679000000	44021
680000000	43531
681000000	43943
682000000	43958
683000000	44325
684000000	43996
685000000	44115
686000000	44014
687000000	43917
688000000	43638
689000000	43704
690000000	43853
691000000	44079
692000000	43938
693000000	44159
694000000	43552
695000000	43981
696000000	43866
697000000	43800
698000000	43474
699000000	44045
700000000	43320
701000000	43757
702000000	43467
703000000	44053
704000000	43867
705000000	44275
706000000	43972
707000000	43940
708000000	44092
709000000	43577
710000000	44221
711000000	44001
712000000	43683
713000000	43674
714000000	43872
715000000	43774
716000000	43858
717000000	43462
718000000	43873
719000000	43945
720000000	44157
721000000	43572
722000000	43875
723000000	43957
724000000	43723
725000000	43987
726000000	44382
727000000	43930
728000000	44069
729000000	43918
730000000	43602
731000000	43125
732000000	44135
733000000	44060
734000000	43928
735000000	43857
736000000	43752
737000000	44046
738000000	44010
739000000	44298
740000000	43405
741000000	44408
742000000	43385
743000000	43990
744000000	43974
745000000	44186
746000000	44122
747000000	43845
748000000	43780
749000000	43336
750000000	43953
751000000	43678
752000000	43947
753000000	43883
754000000	43879
755000000	44157
756000000	43787
757000000	44283
758000000	43779
759000000	44127
760000000	43924
761000000	44024
762000000	43629
763000000	44186
764000000	44082
765000000	43551
766000000	43843
767000000	43495
768000000	44011
769000000	44244
770000000	43733
771000000	44003
772000000	43851
773000000	44013
774000000	43939
775000000	43663
776000000	43896
777000000	43846
778000000	43769
779000000	43843
780000000	44350
781000000	43577
782000000	43888
783000000	43695
784000000	44088
785000000	44058
786000000	44090
787000000	43531
788000000	43756
789000000	43856
790000000	44081
791000000	44134
792000000	43560
793000000	44478
794000000	44016
795000000	43446
796000000	43783
797000000	43771
798000000	43685
799000000	44075
800000000	43851
801000000	43765
802000000	43652
803000000	43797
804000000	43695
805000000	44342
806000000	43949
807000000	44198
808000000	43960
809000000	43795
810000000	43994
811000000	43942
812000000	43898
813000000	44043
814000000	44163
815000000	43701
816000000	43646
817000000	43845
818000000	43847
819000000	44080
820000000	44057
821000000	43517
822000000	44093
823000000	43887
824000000	44012
825000000	43778
826000000	44029
827000000	43765
828000000	43717
829000000	43501
830000000	43932
831000000	43944
832000000	44029
833000000	43870
834000000	43426
835000000	43697
836000000	43710
837000000	43804
838000000	44052
839000000	43754
840000000	44147
841000000	43783
842000000	43573
843000000	43977
844000000	43779
845000000	44030
846000000	43662
847000000	43733
848000000	44223
849000000	43908
850000000	43779
851000000	44051
852000000	43811
853000000	44208
854000000	43631
855000000	43798
856000000	44017
857000000	44159
858000000	43621
859000000	43922
860000000	43722
861000000	43987
862000000	44104
863000000	43514
864000000	44156
865000000	44004
866000000	43795
867000000	43732
868000000	43600
869000000	43741
870000000	43795
871000000	43878
872000000	44179
873000000	43784
874000000	43944
875000000	43901
876000000	43684
877000000	43885
878000000	43740
879000000	44078
880000000	43668
881000000	43703
882000000	43870
883000000	43833
884000000	43310
885000000	43536
886000000	44103
887000000	43641
888000000	44046
889000000	43915
890000000	43811
891000000	43979
892000000	43826
893000000	43496
894000000	43824
895000000	43593
896000000	43646
897000000	43553
898000000	44273
899000000	44128
900000000	43796
901000000	43966
902000000	43955
903000000	43865
904000000	43800
905000000	44107
906000000	43533
907000000	43555
908000000	43773
909000000	43418
910000000	44076
911000000	43862
912000000	44056
913000000	43856
914000000	43922
915000000	43924
916000000	43523
917000000	43726
918000000	44227
919000000	43368
920000000	43761
921000000	43973
922000000	43602
923000000	43838
924000000	43655
925000000	44196
926000000	44140
927000000	43730
928000000	43501
929000000	43644
930000000	43525
931000000	44028
932000000	43702
933000000	43884
934000000	43631
935000000	43977
936000000	43557
937000000	43982
938000000	43524
939000000	43980
940000000	44102
941000000	43653
942000000	43887
943000000	43783
944000000	44357
945000000	43800
946000000	44130
947000000	43930
948000000	43880
949000000	44176
950000000	43677
951000000	43877
952000000	43948
953000000	43586
954000000	43571
955000000	44066
956000000	43736
957000000	43650
958000000	43805
959000000	43879
960000000	43641
961000000	43885
962000000	43563
963000000	43586
964000000	43759
965000000	43288
966000000	43541
967000000	43702
968000000	43799
969000000	43819
970000000	43895
971000000	43960
972000000	43629
973000000	43863
974000000	43918
975000000	43525
976000000	44022
977000000	43549
978000000	43733
979000000	43416
980000000	43717
981000000	44157
982000000	43730
983000000	44078
984000000	43585
985000000	43564
986000000	43930
987000000	43767
988000000	44094
989000000	43903
990000000	43805
991000000	43777
992000000	43918
993000000	43996
994000000	43871
995000000	43756
996000000	43749
997000000	43693
998000000	43541
999000000	43746
