"Time (ps)"	"Counts per bin"
0	147778
1000000	148124
2000000	148188
3000000	148065
4000000	148463
5000000	148454
6000000	148950
7000000	148978
8000000	147681
9000000	148496
10000000	148087
11000000	147816
12000000	148036
13000000	148353
14000000	148307
15000000	148210
16000000	148102
17000000	148442
18000000	147749
19000000	147520
20000000	147980
21000000	148143
22000000	148287
23000000	147750
24000000	147714
25000000	147963
26000000	148177
27000000	148633
28000000	147546
29000000	147993
30000000	148751
31000000	147675
32000000	147518
33000000	148180
34000000	146934
35000000	147510
36000000	148249
37000000	148323
38000000	147459
39000000	147236
40000000	147872
41000000	148492
42000000	148098
43000000	147714
44000000	147814
45000000	147472
46000000	147325
47000000	147828
48000000	147482
49000000	147569
50000000	147803
51000000	148097
52000000	148052
53000000	148180
54000000	147606
55000000	147777
56000000	147308
57000000	147069
58000000	148273
59000000	148007
60000000	146955
61000000	147506
62000000	147621
63000000	147240
64000000	147689
65000000	147887
66000000	148019
67000000	147786
68000000	147456
69000000	147742
70000000	147618
71000000	148106
72000000	147593
73000000	147817
74000000	147440
75000000	147981
76000000	147879
77000000	147981
78000000	147581
79000000	147181
80000000	147243
81000000	147757
82000000	147514
83000000	146950
84000000	147582
85000000	147702
86000000	147737
87000000	147058
88000000	146625
89000000	148113
90000000	147515
91000000	147465
92000000	147327
93000000	148099
94000000	147901
95000000	147137
96000000	147571
97000000	147367
98000000	147201
99000000	147558
100000000	146920
101000000	147179
102000000	147143
103000000	147144
104000000	148080
105000000	147556
106000000	147229
107000000	147913
108000000	147834
109000000	147696
110000000	147224
111000000	147221
112000000	147572
113000000	147273
114000000	147356
115000000	147444
116000000	147489
117000000	147605
118000000	146863
119000000	147599
120000000	147254
121000000	147310
122000000	147037
123000000	146727
124000000	147440
125000000	146988
126000000	147098
127000000	147808
128000000	146851
129000000	146450
130000000	147759
131000000	146991
132000000	147497
133000000	147115
134000000	147978
135000000	147737
136000000	147584
137000000	148049
138000000	146741
139000000	146756
140000000	147773
141000000	147445
142000000	147697
143000000	147377
144000000	147432
145000000	147432
146000000	147337
147000000	147496
148000000	147630
149000000	147422
150000000	146883
151000000	147139
152000000	147076
153000000	147456
154000000	147250
155000000	147174
156000000	146778
157000000	147329
158000000	147226
159000000	147138
160000000	147350
161000000	147363
162000000	146623
163000000	147240
164000000	147489
165000000	147419
166000000	147495
167000000	147457
168000000	146323
169000000	147025
170000000	147408
171000000	147051
172000000	146906
173000000	147465
174000000	147177
175000000	147767
176000000	146710
177000000	147441
178000000	147385
179000000	146582
180000000	146948
181000000	147920
182000000	146881
183000000	147449
184000000	147355
185000000	147588
186000000	146814
187000000	147200
188000000	147125
189000000	147298
190000000	146036
191000000	147398
192000000	147503
193000000	146993
194000000	147260
195000000	147373
196000000	146750
197000000	146809
198000000	146521
199000000	147248
200000000	147110
201000000	147451
202000000	146921
203000000	146888
204000000	147437
205000000	147005
206000000	147109
207000000	147203
208000000	146806
209000000	147620
210000000	146568
211000000	146997
212000000	147288
213000000	146788
214000000	147384
215000000	146539
216000000	146230
217000000	147313
218000000	147199
219000000	146940
220000000	146878
221000000	146672
222000000	147110
223000000	146491
224000000	147708
225000000	147340
226000000	147180
227000000	146166
228000000	147289
229000000	147631
230000000	146677
231000000	146778
232000000	146880
233000000	146732
234000000	146865
235000000	147356
236000000	147683
237000000	146342
238000000	147227
239000000	147117
240000000	146358
241000000	146372
242000000	146304
243000000	147406
244000000	147087
245000000	146446
246000000	146854
247000000	146722
248000000	147312
249000000	146443
250000000	146257
251000000	147002
252000000	146532
253000000	146740
254000000	146347
255000000	147313
256000000	146677
257000000	147041
258000000	146901
259000000	147200
260000000	146511
261000000	146683
262000000	147774
263000000	146773
264000000	146665
265000000	147303
266000000	147171
267000000	147764
268000000	147032
269000000	146699
270000000	147268
271000000	146330
272000000	147350
273000000	146627
274000000	147293
275000000	147176
276000000	147507
277000000	147331
278000000	146992
279000000	146365
280000000	147147
281000000	147606
282000000	147008
283000000	147262
284000000	147253
285000000	146910
286000000	147419
287000000	147339
288000000	146870
289000000	146653
290000000	146546
291000000	146585
292000000	147450
293000000	146315
294000000	147538
295000000	146759
296000000	146335
297000000	146638
298000000	146746
299000000	146900
300000000	146699
301000000	146558
302000000	147340
303000000	146400
304000000	147084
305000000	146446
306000000	147297
307000000	146435
308000000	146302
309000000	147294
310000000	146254
311000000	146898
312000000	146573
313000000	146385
314000000	146572
315000000	147132
316000000	146442
317000000	146501
318000000	146304
319000000	146905
320000000	146973
321000000	146969
322000000	147021
323000000	146293
324000000	146933
325000000	147273
326000000	147109
327000000	147149
328000000	147223
329000000	147127
330000000	147111
331000000	146532
332000000	146299
333000000	146582
334000000	146454
335000000	146463
336000000	146671
337000000	146580
338000000	147056
339000000	146565
340000000	146254
341000000	146868
342000000	146673
343000000	146634
344000000	146890
345000000	147072
346000000	146583
347000000	146957
348000000	146961
349000000	146325
350000000	146902
351000000	146145
352000000	147467
353000000	147136
354000000	146927
355000000	146691
356000000	146425
357000000	146653
358000000	146672
359000000	147250
360000000	146073
361000000	146904
362000000	146980
363000000	145918
364000000	145918
365000000	146711
366000000	146640
367000000	147171
368000000	146759
369000000	146502
370000000	146760
371000000	146330
372000000	146901
373000000	146776
374000000	147174
375000000	146058
376000000	146726
377000000	146949
378000000	146537
379000000	146685
380000000	146983
381000000	146310
382000000	146641
383000000	146385
384000000	145773
385000000	146705
386000000	146718
387000000	147021
388000000	146396
389000000	146625
390000000	146328
391000000	147108
392000000	145783
393000000	146252
394000000	146913
395000000	146399
396000000	146462
397000000	146964
398000000	147377
399000000	146788
400000000	146798
401000000	146931
402000000	146278
403000000	146604
404000000	145972
405000000	146532
406000000	146773
407000000	147292
408000000	147035
409000000	146516
410000000	146045
411000000	146540
412000000	146940
413000000	146515
414000000	146866
415000000	145626
416000000	147018
417000000	146752
418000000	146075
419000000	146262
420000000	146503
421000000	146448
422000000	147068
423000000	146311
424000000	147181
425000000	146492
426000000	147321
427000000	146742
428000000	146089
429000000	147037
430000000	147028
431000000	146512
432000000	146083
433000000	147144
434000000	146450
435000000	145931
436000000	146624
437000000	146537
438000000	146221
439000000	147001
440000000	145886
441000000	146545
442000000	146729
443000000	146980
444000000	146643
445000000	146890
446000000	146155
447000000	146618
448000000	147016
449000000	146931
450000000	147191
451000000	146379
452000000	146856
453000000	146955
454000000	145815
455000000	146115
456000000	146459
457000000	146193
458000000	146656
459000000	147418
460000000	146803
461000000	146922
462000000	146316
463000000	146303
464000000	146289
465000000	147427
466000000	145998
467000000	146501
468000000	146458
469000000	146452
470000000	146495
471000000	146798
472000000	147137
473000000	146626
474000000	146523
475000000	146439
476000000	146430
477000000	146727
478000000	146527
479000000	146728
480000000	146782
481000000	146085
482000000	146432
483000000	147084
484000000	146555
485000000	146408
486000000	146623
487000000	146221
488000000	146131
489000000	146655
490000000	146080
491000000	146443
492000000	146554
493000000	146618
494000000	146360
495000000	146774
496000000	146155
497000000	146069
498000000	145550
499000000	146936
500000000	146445
501000000	146651
502000000	146388
503000000	146975
504000000	145621
505000000	146219
506000000	146013
507000000	146286
508000000	146058
509000000	145830
510000000	146680
511000000	146494
512000000	146414
513000000	146396
514000000	145932
515000000	146007
516000000	146261
517000000	146077
518000000	146500
519000000	145520
520000000	147109
521000000	146643
522000000	146356
523000000	146102
524000000	146620
525000000	146621
526000000	146512
527000000	146372
528000000	146568
529000000	146123
530000000	146196
531000000	146824
532000000	146410
533000000	147167
534000000	146329
535000000	146729
536000000	146833
537000000	146064
538000000	146365
539000000	146543
540000000	146520
541000000	147193
542000000	146235
543000000	146816
544000000	147103
545000000	146256
546000000	145316
547000000	146487
548000000	146297
549000000	146317
550000000	146567
551000000	145938
552000000	146403
553000000	146389
554000000	146546
555000000	145890
556000000	146501
557000000	146264
558000000	146283
559000000	146467
560000000	146147
561000000	146144
562000000	146274
563000000	146314
564000000	147079
565000000	146241
566000000	146417
567000000	146416
568000000	145980
569000000	146469
570000000	146702
571000000	146964
572000000	145942
573000000	146225
574000000	146218
575000000	146405
576000000	146328
577000000	146525
578000000	146275
579000000	146310
580000000	146899
581000000	145852
582000000	146452
583000000	146059
584000000	146785
585000000	146250
586000000	146239
587000000	145641
588000000	146022
589000000	145641
590000000	145929
591000000	146850
592000000	145669
593000000	146271
594000000	145894
595000000	145926
596000000	146537
597000000	146178
598000000	146158
599000000	146841
600000000	146713
601000000	146465
602000000	146170
603000000	146214
604000000	146790
605000000	146506
606000000	146108
607000000	146450
608000000	146094
609000000	146401
610000000	146063
611000000	146016
612000000	146606
613000000	145853
614000000	145508
615000000	146302
616000000	146521
617000000	146545
618000000	146316
619000000	146027
620000000	146481
621000000	146506
622000000	146255
623000000	146525
624000000	146844
625000000	146117
626000000	146137
627000000	146509
628000000	146246
629000000	146688
630000000	145957
631000000	146703
632000000	146302
633000000	145886
634000000	145696
635000000	145634
636000000	146794
637000000	146870
638000000	146413
639000000	146008
640000000	145649
641000000	146414
642000000	146200
643000000	146041
644000000	146237
645000000	146305
646000000	146370
647000000	146593
648000000	146356
649000000	146696
650000000	146008
651000000	146114
652000000	146478
653000000	145862
654000000	145709
655000000	146337
656000000	145977
657000000	146041
658000000	146486
659000000	147145
660000000	145317
661000000	146160
662000000	146061
663000000	146524
664000000	146450
665000000	145870
666000000	146646
667000000	146294
668000000	146371
669000000	146357
670000000	146420
671000000	145849
672000000	145841
673000000	146425
674000000	146592
675000000	146295
676000000	146657
677000000	145709
678000000	146047
679000000	146566
680000000	146659
681000000	146608
682000000	145817
683000000	146353
684000000	146003
685000000	146361
686000000	146461
687000000	145634
688000000	146894
689000000	146332
690000000	146765
691000000	146354
692000000	146398
693000000	146340
694000000	145858
695000000	146360
696000000	146176
697000000	145920
698000000	146461
699000000	145789
700000000	146026
701000000	146158
702000000	146282
703000000	145510
704000000	146210
705000000	146285
706000000	146264
707000000	145824
708000000	146079
709000000	146163
710000000	146539
711000000	146596
712000000	146481
713000000	146570
714000000	146373
715000000	146355
716000000	146576
717000000	146464
718000000	146180
719000000	146536
720000000	145789
721000000	146104
722000000	146022
723000000	145467
724000000	146137
725000000	145874
726000000	145850
727000000	145814
728000000	146129
729000000	146388
730000000	145781
731000000	146258
732000000	145877
733000000	146097
734000000	145876
735000000	146277
736000000	146426
737000000	145477
738000000	146011
739000000	145817
740000000	146289
741000000	145795
742000000	146759
743000000	146240
744000000	146760
745000000	146437
746000000	145994
747000000	146523
748000000	146051
749000000	146515
750000000	146159
751000000	146078
752000000	146001
753000000	145996
754000000	145980
755000000	146943
756000000	145308
757000000	146647
758000000	145778
759000000	145862
760000000	146423
761000000	146075
762000000	146471
763000000	146262
764000000	145301
765000000	146165
766000000	146292
767000000	146239
768000000	146245
769000000	145662
770000000	145853
771000000	145721
772000000	145886
773000000	145899
774000000	145853
775000000	146556
776000000	146519
777000000	146055
778000000	145951
779000000	146004
780000000	145801
781000000	145637
782000000	146044
783000000	146281
784000000	146554
785000000	145597
786000000	146643
787000000	146752
788000000	146325
789000000	146278
790000000	145989
791000000	146131
792000000	145710
793000000	145650
794000000	146843
795000000	146453
796000000	145911
797000000	146214
798000000	146604
799000000	146397
800000000	146905
801000000	145681
802000000	145483
803000000	145336
804000000	146208
805000000	146301
806000000	145763
807000000	145810
808000000	145168
809000000	145852
810000000	146316
811000000	145951
812000000	145892
813000000	145820
814000000	146538
815000000	146079
816000000	146140
817000000	146371
818000000	146265
819000000	146835
820000000	146183
821000000	146036
822000000	146979
823000000	145522
824000000	146216
825000000	146186
826000000	146285
827000000	146111
828000000	146295
829000000	145981
830000000	145718
831000000	145906
832000000	145120
833000000	146254
834000000	146064
835000000	146527
836000000	146149
837000000	146304
838000000	146235
839000000	145499
840000000	146458
841000000	145682
842000000	145118
843000000	146580
844000000	145477
845000000	146120
846000000	145631
847000000	146053
848000000	146401
849000000	145997
850000000	145854
851000000	145777
852000000	146082
853000000	145204
854000000	146417
855000000	145595
856000000	145642
857000000	146047
858000000	146424
859000000	145911
860000000	145826
861000000	145690
862000000	145751
863000000	145940
864000000	146653
865000000	146356
866000000	145883
867000000	146200
868000000	146240
869000000	145873
870000000	146146
871000000	146358
872000000	146368
873000000	145663
874000000	145985
875000000	145685
876000000	146125
877000000	145445
878000000	145627
879000000	145834
880000000	145966
881000000	145742
882000000	145635
883000000	146201
884000000	146102
885000000	146484
886000000	146046
887000000	145840
888000000	145749
889000000	146194
890000000	145871
891000000	146114
892000000	146152
893000000	146427
894000000	147036
895000000	146114
896000000	146239
897000000	145859
898000000	145950
899000000	147025
900000000	145990
901000000	146256
902000000	145578
903000000	146226
904000000	146300
905000000	145767
906000000	145733
907000000	146002
908000000	144932
909000000	146202
910000000	146219
911000000	146362
912000000	145896
913000000	145692
914000000	145778
915000000	146102
916000000	145911
917000000	146351
918000000	145786
919000000	146693
920000000	146272
921000000	146527
922000000	146817
923000000	145972
924000000	146650
925000000	146139
926000000	145980
927000000	146474
928000000	146449
929000000	145903
930000000	146387
931000000	145606
932000000	145574
933000000	146459
934000000	145431
935000000	146094
936000000	146468
937000000	145670
938000000	146277
939000000	145946
940000000	146528
941000000	146264
942000000	146551
943000000	145713
944000000	145823
945000000	145819
946000000	146348
947000000	145866
948000000	146744
949000000	146106
950000000	146592
951000000	146189
952000000	146200
953000000	146019
954000000	145965
955000000	146514
956000000	145243
957000000	145971
958000000	145248
959000000	146431
960000000	145690
961000000	145574
962000000	146575
963000000	146125
964000000	145793
965000000	146653
966000000	145884
967000000	145701
968000000	145474
969000000	146458
970000000	145852
971000000	146420
972000000	145258
973000000	146011
974000000	146041
975000000	145079
976000000	146814
977000000	145867
978000000	145667
979000000	145683
980000000	146008
981000000	145738
982000000	145483
983000000	146200
984000000	145895
985000000	145605
986000000	146117
987000000	146160
988000000	145990
989000000	146500
990000000	145524
991000000	145428
992000000	145894
993000000	146272
994000000	145975
995000000	146781
996000000	145619
997000000	146194
998000000	146498
999000000	146408
