"Time (ps)"	"Counts per bin"
0	15237
5000	15286
10000	15431
15000	15760
20000	15476
25000	15677
30000	15583
35000	15797
40000	16085
45000	16156
50000	16165
55000	16251
60000	16560
65000	16579
70000	16612
75000	16757
80000	17072
85000	16940
90000	16922
95000	17136
100000	17194
105000	17328
110000	17624
115000	17714
120000	17860
125000	17653
130000	17915
135000	18097
140000	18314
145000	18326
150000	18233
155000	18253
160000	18380
165000	18422
170000	18597
175000	18771
180000	18747
185000	18614
190000	18862
195000	19116
200000	19172
205000	19325
210000	18914
215000	19559
220000	19419
225000	19363
230000	19742
235000	19340
240000	19870
245000	19734
250000	19908
255000	19872
260000	19869
265000	19709
270000	20008
275000	19977
280000	19799
285000	19888
290000	20143
295000	20207
300000	20164
305000	20170
310000	20200
315000	20340
320000	20250
325000	20432
330000	20247
335000	20388
340000	20449
345000	20309
350000	20461
355000	20199
360000	20692
365000	20291
370000	20256
375000	20218
380000	20313
385000	20355
390000	20499
395000	20223
400000	20354
405000	20044
410000	20231
415000	20248
420000	20257
425000	20273
430000	20021
435000	19971
440000	19947
445000	19994
450000	20015
455000	20143
460000	19845
465000	19891
470000	19820
475000	19777
480000	19899
485000	19797
490000	19433
495000	19879
500000	19392
505000	19819
510000	19576
515000	19432
520000	19626
525000	19512
530000	19343
535000	19538
540000	19188
545000	19169
550000	19164
555000	19129
560000	19159
565000	19126
570000	19332
575000	18965
580000	18701
585000	18838
590000	18740
595000	18658
600000	18857
605000	18756
610000	18712
615000	18364
620000	18545
625000	18861
630000	18567
635000	18540
640000	18767
645000	18340
650000	18265
655000	18106
660000	18157
665000	18031
670000	18284
675000	17834
680000	18303
685000	18041
690000	17951
695000	18020
700000	17826
705000	17876
710000	17808
715000	17952
720000	17714
725000	17649
730000	17665
735000	17802
740000	17507
745000	17860
750000	17489
755000	17550
760000	17418
765000	17570
770000	17587
775000	17339
780000	17252
785000	17440
790000	17394
795000	17240
800000	17096
805000	17338
810000	17338
815000	17310
820000	17195
825000	17243
830000	17367
835000	17024
840000	17121
845000	16993
850000	17052
855000	16955
860000	16970
865000	16981
870000	16957
875000	17068
880000	17129
885000	16759
890000	16842
895000	16985
900000	16841
905000	17085
910000	16756
915000	16686
920000	16900
925000	16789
930000	16889
935000	16692
940000	16627
945000	16632
950000	16758
955000	16616
960000	16567
965000	16708
970000	16607
975000	16625
980000	16838
985000	16643
990000	16619
995000	16337
1000000	16553
1005000	16418
1010000	16403
1015000	16541
1020000	16460
1025000	16356
1030000	16342
1035000	16368
1040000	16253
1045000	16297
1050000	16283
1055000	16121
1060000	16272
1065000	16051
1070000	16203
1075000	16391
1080000	15988
1085000	16115
1090000	16051
1095000	16077
1100000	16251
1105000	16018
1110000	15994
1115000	15894
1120000	15959
1125000	16117
1130000	15768
1135000	15876
1140000	15844
1145000	15755
1150000	15697
1155000	15412
1160000	15768
1165000	15706
1170000	15720
1175000	15750
1180000	15328
1185000	15416
1190000	15397
1195000	15596
1200000	15629
1205000	15541
1210000	15473
1215000	15173
1220000	15422
1225000	15355
1230000	15298
1235000	15314
1240000	15221
1245000	15444
1250000	14912
1255000	15049
1260000	15037
1265000	15128
1270000	14832
1275000	14743
1280000	14902
1285000	14842
1290000	14543
1295000	14597
1300000	14501
1305000	14565
1310000	14435
1315000	14416
1320000	14456
1325000	14609
1330000	14199
1335000	14365
1340000	14352
1345000	14135
1350000	14123
1355000	14198
1360000	14031
1365000	13982
1370000	14069
1375000	13916
1380000	13803
1385000	13825
1390000	13718
1395000	13704
1400000	13592
1405000	13422
1410000	13590
1415000	13485
1420000	13488
1425000	13436
1430000	13423
1435000	13420
1440000	13229
1445000	13078
1450000	12971
1455000	12826
1460000	12940
1465000	13146
1470000	13004
1475000	12862
1480000	13033
1485000	12702
1490000	12806
1495000	12695
1500000	12608
1505000	12417
1510000	12358
1515000	12444
1520000	12196
1525000	12192
1530000	12512
1535000	12277
1540000	12209
1545000	12026
1550000	12343
1555000	11783
1560000	11932
1565000	11869
1570000	11995
1575000	11956
1580000	11745
1585000	11741
1590000	11446
1595000	11656
1600000	11669
1605000	11412
1610000	11229
1615000	11393
1620000	11433
1625000	11243
1630000	11243
1635000	11210
1640000	11187
1645000	11234
1650000	11040
1655000	11008
1660000	11055
1665000	10986
1670000	11036
1675000	10756
1680000	10907
1685000	10690
1690000	10660
1695000	10825
1700000	10702
1705000	10546
1710000	10575
1715000	10597
1720000	10632
1725000	10581
1730000	10522
1735000	10463
1740000	10348
1745000	10317
1750000	10334
1755000	10309
1760000	10363
1765000	10045
1770000	10117
1775000	10092
1780000	10220
1785000	9965
1790000	9998
1795000	9864
1800000	9980
1805000	9669
1810000	10071
1815000	9800
1820000	9805
1825000	9761
1830000	9731
1835000	9832
1840000	9618
1845000	9901
1850000	9444
1855000	9613
1860000	9618
1865000	9738
1870000	9356
1875000	9530
1880000	9427
1885000	9444
1890000	9198
1895000	9344
1900000	9278
1905000	9397
1910000	9152
1915000	9268
1920000	9288
1925000	9118
1930000	9159
1935000	9012
1940000	9365
1945000	9011
1950000	8837
1955000	8827
1960000	8994
1965000	9009
1970000	8961
1975000	8848
1980000	8734
1985000	8825
1990000	8908
1995000	8988
2000000	8644
2005000	8730
2010000	8706
2015000	8575
2020000	8748
2025000	8743
2030000	8641
2035000	8426
2040000	8535
2045000	8741
2050000	8479
2055000	8553
2060000	8417
2065000	8463
2070000	8512
2075000	8520
2080000	8450
2085000	8340
2090000	8161
2095000	8272
2100000	8387
2105000	8309
2110000	8303
2115000	8267
2120000	8127
2125000	8150
2130000	8241
2135000	8049
2140000	8073
2145000	7876
2150000	8238
2155000	8096
2160000	8036
2165000	7955
2170000	7832
2175000	7900
2180000	7734
2185000	7906
2190000	7986
2195000	7842
2200000	7832
2205000	7888
2210000	7831
2215000	7682
2220000	7722
2225000	7682
2230000	7635
2235000	7684
2240000	7699
2245000	7555
2250000	7442
2255000	7424
2260000	7408
2265000	7401
2270000	7391
2275000	7353
2280000	7310
2285000	7315
2290000	7311
2295000	7312
2300000	7180
2305000	7310
2310000	7317
2315000	7124
2320000	7273
2325000	7115
2330000	7125
2335000	7101
2340000	7250
2345000	7018
2350000	7083
2355000	7015
2360000	6975
2365000	6814
2370000	6923
2375000	6749
2380000	6783
2385000	6667
2390000	6750
2395000	6567
2400000	6768
2405000	6859
2410000	6617
2415000	6570
2420000	6632
2425000	6492
2430000	6459
2435000	6438
2440000	6332
2445000	6518
2450000	6458
2455000	6244
2460000	6287
2465000	6353
2470000	6327
2475000	6296
2480000	6332
2485000	6262
2490000	6169
2495000	6299
2500000	6125
2505000	5987
2510000	5992
2515000	6077
2520000	6016
2525000	5921
2530000	5868
2535000	5812
2540000	5686
2545000	5901
2550000	5937
2555000	5895
2560000	5699
2565000	5589
2570000	5760
2575000	5716
2580000	5676
2585000	5682
2590000	5573
2595000	5568
2600000	5578
2605000	5622
2610000	5458
2615000	5359
2620000	5555
2625000	5467
2630000	5370
2635000	5316
2640000	5262
2645000	5238
2650000	5233
2655000	5294
2660000	5163
2665000	5169
2670000	5164
2675000	5306
2680000	5045
2685000	5071
2690000	5026
2695000	5111
2700000	5070
2705000	4946
2710000	5011
2715000	4821
2720000	4887
2725000	4781
2730000	4848
2735000	4765
2740000	4785
2745000	4832
2750000	4659
2755000	4609
2760000	4797
2765000	4690
2770000	4697
2775000	4526
2780000	4544
2785000	4658
2790000	4450
2795000	4458
2800000	4551
2805000	4498
2810000	4486
2815000	4386
2820000	4362
2825000	4337
2830000	4322
2835000	4337
2840000	4391
2845000	4264
2850000	4218
2855000	4208
2860000	4121
2865000	4188
2870000	4244
2875000	4130
2880000	4180
2885000	4062
2890000	4136
2895000	4013
2900000	3960
2905000	4077
2910000	3875
2915000	3952
2920000	3826
2925000	3917
2930000	3896
2935000	3814
2940000	3842
2945000	3816
2950000	3739
2955000	3874
2960000	3839
2965000	3787
2970000	3722
2975000	3759
2980000	3730
2985000	3735
2990000	3645
2995000	3556
3000000	3655
3005000	3501
3010000	3515
3015000	3500
3020000	3535
3025000	3569
3030000	3542
3035000	3479
3040000	3460
3045000	3302
3050000	3380
3055000	3339
3060000	3284
3065000	3360
3070000	3228
3075000	3260
3080000	3230
3085000	3352
3090000	3278
3095000	3126
3100000	3224
3105000	3279
3110000	3262
3115000	3120
3120000	3219
3125000	3140
3130000	3173
3135000	3066
3140000	3097
3145000	3031
3150000	2958
3155000	3138
3160000	2971
3165000	3019
3170000	3007
3175000	2893
3180000	2869
3185000	2861
3190000	2852
3195000	2983
3200000	2891
3205000	2826
3210000	2824
3215000	2697
3220000	2725
3225000	2748
3230000	2771
3235000	2801
3240000	2683
3245000	2656
3250000	2705
3255000	2639
3260000	2633
3265000	2622
3270000	2579
3275000	2665
3280000	2474
3285000	2434
3290000	2522
3295000	2466
3300000	2451
3305000	2465
3310000	2490
3315000	2517
3320000	2391
3325000	2453
3330000	2379
3335000	2426
3340000	2385
3345000	2400
3350000	2303
3355000	2257
3360000	2168
3365000	2333
3370000	2273
3375000	2217
3380000	2202
3385000	2195
3390000	2207
3395000	2111
3400000	2187
3405000	2141
3410000	2252
3415000	2176
3420000	2145
3425000	2001
3430000	2089
3435000	2177
3440000	2062
3445000	2127
3450000	2034
3455000	1980
3460000	2003
3465000	1958
3470000	1966
3475000	1947
3480000	1955
3485000	1928
3490000	1978
3495000	1900
3500000	1783
3505000	1814
3510000	1801
3515000	1872
3520000	1813
3525000	1809
3530000	1735
3535000	1835
3540000	1779
3545000	1736
3550000	1690
3555000	1699
3560000	1671
3565000	1753
3570000	1704
3575000	1689
3580000	1674
3585000	1693
3590000	1603
3595000	1681
3600000	1668
3605000	1622
3610000	1575
3615000	1634
3620000	1581
3625000	1535
3630000	1576
3635000	1575
3640000	1487
3645000	1502
3650000	1485
3655000	1513
3660000	1437
3665000	1461
3670000	1454
3675000	1336
3680000	1358
3685000	1367
3690000	1415
3695000	1431
3700000	1358
3705000	1358
3710000	1372
3715000	1363
3720000	1393
3725000	1285
3730000	1333
3735000	1265
3740000	1281
3745000	1296
3750000	1279
3755000	1208
3760000	1206
3765000	1245
3770000	1138
3775000	1144
3780000	1227
3785000	1113
3790000	1182
3795000	1172
3800000	1116
3805000	1092
3810000	1154
3815000	1103
3820000	1091
3825000	1132
3830000	1091
3835000	1129
3840000	1082
3845000	996
3850000	1098
3855000	1064
3860000	1065
3865000	1008
3870000	1048
3875000	968
3880000	988
3885000	909
3890000	986
3895000	981
3900000	998
3905000	925
3910000	1006
3915000	940
3920000	936
3925000	912
3930000	920
3935000	886
3940000	912
3945000	919
3950000	941
3955000	821
3960000	854
3965000	852
3970000	837
3975000	848
3980000	882
3985000	826
3990000	833
3995000	871
4000000	824
4005000	762
4010000	774
4015000	742
4020000	789
4025000	775
4030000	774
4035000	816
4040000	720
4045000	746
4050000	713
4055000	677
4060000	645
4065000	674
4070000	668
4075000	697
4080000	689
4085000	643
4090000	654
4095000	659
4100000	682
4105000	669
4110000	581
4115000	643
4120000	632
4125000	604
4130000	624
4135000	608
4140000	587
4145000	615
4150000	560
4155000	548
4160000	556
4165000	597
4170000	577
4175000	548
4180000	562
4185000	547
4190000	538
4195000	520
4200000	576
4205000	493
4210000	532
4215000	508
4220000	532
4225000	493
4230000	508
4235000	491
4240000	424
4245000	490
4250000	519
4255000	465
4260000	428
4265000	417
4270000	466
4275000	462
4280000	448
4285000	414
4290000	422
4295000	400
4300000	423
4305000	430
4310000	431
4315000	408
4320000	420
4325000	373
4330000	409
4335000	438
4340000	438
4345000	367
4350000	375
4355000	365
4360000	368
4365000	364
4370000	365
4375000	350
4380000	350
4385000	401
4390000	344
4395000	331
4400000	370
4405000	364
4410000	354
4415000	375
4420000	323
4425000	334
4430000	347
4435000	354
4440000	306
4445000	308
4450000	345
4455000	333
4460000	322
4465000	338
4470000	314
4475000	255
4480000	290
4485000	327
4490000	309
4495000	287
4500000	278
4505000	267
4510000	289
4515000	277
4520000	279
4525000	258
4530000	258
4535000	293
4540000	267
4545000	251
4550000	262
4555000	226
4560000	260
4565000	269
4570000	233
4575000	239
4580000	243
4585000	254
4590000	264
4595000	255
4600000	249
4605000	238
4610000	239
4615000	232
4620000	237
4625000	243
4630000	201
4635000	200
4640000	225
4645000	256
4650000	225
4655000	242
4660000	209
4665000	208
4670000	211
4675000	220
4680000	222
4685000	193
4690000	199
4695000	224
4700000	239
4705000	190
4710000	190
4715000	205
4720000	210
4725000	227
4730000	204
4735000	197
4740000	196
4745000	222
4750000	175
4755000	208
4760000	194
4765000	201
4770000	198
4775000	219
4780000	203
4785000	203
4790000	200
4795000	205
4800000	179
4805000	183
4810000	188
4815000	171
4820000	184
4825000	162
4830000	181
4835000	198
4840000	163
4845000	186
4850000	170
4855000	183
4860000	167
4865000	177
4870000	163
4875000	155
4880000	151
4885000	157
4890000	165
4895000	162
4900000	180
4905000	162
4910000	171
4915000	175
4920000	156
4925000	177
4930000	174
4935000	168
4940000	173
4945000	148
4950000	178
4955000	147
4960000	146
4965000	139
4970000	143
4975000	174
4980000	118
4985000	171
4990000	136
4995000	168
