"Time (ps)"	"Counts per bin"
0	48724
100000000	49107
200000000	49283
300000000	49126
400000000	49696
500000000	49819
600000000	49794
700000000	49790
800000000	49797
900000000	50133
1000000000	49564
1100000000	49788
1200000000	49474
1300000000	49764
1400000000	50435
1500000000	49558
1600000000	49858
1700000000	50289
1800000000	50025
1900000000	50069
2000000000	49840
2100000000	49836
2200000000	50386
2300000000	50038
2400000000	49958
2500000000	50170
2600000000	50139
2700000000	50145
2800000000	50176
2900000000	50067
3000000000	49991
3100000000	50065
3200000000	49934
3300000000	50309
3400000000	50500
3500000000	49914
3600000000	50046
3700000000	50059
3800000000	50144
3900000000	50225
4000000000	50257
4100000000	50000
4200000000	50062
4300000000	49714
4400000000	49791
4500000000	50117
4600000000	50288
4700000000	49952
4800000000	50070
4900000000	50167
5000000000	50136
5100000000	49828
5200000000	50160
5300000000	50114
5400000000	50120
5500000000	50135
5600000000	49900
5700000000	49871
5800000000	49652
5900000000	50056
6000000000	50035
6100000000	49906
6200000000	49934
6300000000	50164
6400000000	50162
6500000000	49924
6600000000	50093
6700000000	50219
6800000000	50125
6900000000	49837
7000000000	50364
7100000000	49880
7200000000	50443
7300000000	50069
7400000000	50080
7500000000	49913
7600000000	50282
7700000000	49932
7800000000	50116
7900000000	49918
8000000000	50005
8100000000	49683
8200000000	49995
8300000000	50449
8400000000	49885
8500000000	49741
8600000000	49990
8700000000	50146
8800000000	50057
8900000000	50027
9000000000	49662
9100000000	49947
9200000000	49925
9300000000	49602
9400000000	50362
9500000000	49804
9600000000	50269
9700000000	49893
9800000000	49764
9900000000	50135
10000000000	49989
10100000000	49871
10200000000	49377
10300000000	50017
10400000000	49988
10500000000	50312
10600000000	50203
10700000000	50074
10800000000	49959
10900000000	50551
11000000000	49891
11100000000	50175
11200000000	50253
11300000000	50130
11400000000	50263
11500000000	49897
11600000000	49716
11700000000	49610
11800000000	49904
11900000000	50167
12000000000	49854
12100000000	49856
12200000000	49811
12300000000	49829
12400000000	49846
12500000000	50236
12600000000	50032
12700000000	50295
12800000000	50228
12900000000	49475
13000000000	49596
13100000000	49947
13200000000	49881
13300000000	49996
13400000000	49939
13500000000	49673
13600000000	49899
13700000000	50065
13800000000	50024
13900000000	49601
14000000000	50173
14100000000	49750
14200000000	49661
14300000000	50230
14400000000	49798
14500000000	49792
14600000000	49867
14700000000	49838
14800000000	49710
14900000000	49994
15000000000	49808
15100000000	49930
15200000000	49937
15300000000	50037
15400000000	50203
15500000000	50031
15600000000	49946
15700000000	49757
15800000000	50128
15900000000	49724
16000000000	49740
16100000000	49904
16200000000	49966
16300000000	50178
16400000000	50112
16500000000	50365
16600000000	50078
16700000000	49700
16800000000	49920
16900000000	49890
17000000000	49690
17100000000	50134
17200000000	50060
17300000000	49913
17400000000	50141
17500000000	49796
17600000000	49766
17700000000	50184
17800000000	49587
17900000000	49841
18000000000	50014
18100000000	50395
18200000000	50111
18300000000	49778
18400000000	49979
18500000000	50323
18600000000	49924
18700000000	49823
18800000000	50069
18900000000	49578
19000000000	50043
19100000000	50042
19200000000	50080
19300000000	50237
19400000000	49816
19500000000	49739
19600000000	50024
19700000000	50085
19800000000	49930
19900000000	49786
20000000000	50294
20100000000	50376
20200000000	49863
20300000000	49825
20400000000	50041
20500000000	50063
20600000000	50207
20700000000	50563
20800000000	49925
20900000000	49808
21000000000	50156
21100000000	49610
21200000000	50084
21300000000	49684
21400000000	49572
21500000000	50154
21600000000	50064
21700000000	49927
21800000000	49516
21900000000	49898
22000000000	50152
22100000000	49724
22200000000	50367
22300000000	49669
22400000000	49931
22500000000	49820
22600000000	50522
22700000000	50260
22800000000	49851
22900000000	49829
23000000000	49877
23100000000	49988
23200000000	49378
23300000000	49890
23400000000	49985
23500000000	50327
23600000000	49695
23700000000	49847
23800000000	50302
23900000000	50095
24000000000	50069
24100000000	49950
24200000000	49682
24300000000	49954
24400000000	49992
24500000000	49706
24600000000	49850
24700000000	49432
24800000000	50308
24900000000	49696
25000000000	49889
25100000000	49728
25200000000	48779
25300000000	49129
25400000000	49280
25500000000	48588
25600000000	48768
25700000000	48591
25800000000	49098
25900000000	48564
26000000000	48627
26100000000	48298
26200000000	48427
26300000000	48670
26400000000	48274
26500000000	48503
26600000000	48604
26700000000	48434
26800000000	48636
26900000000	48301
27000000000	48675
27100000000	48432
27200000000	48575
27300000000	48022
27400000000	47840
27500000000	48342
27600000000	48200
27700000000	48107
27800000000	49002
27900000000	48340
28000000000	48555
28100000000	48240
28200000000	48749
28300000000	48688
28400000000	48524
28500000000	48717
28600000000	48154
28700000000	48252
28800000000	48400
28900000000	48635
29000000000	48202
29100000000	48578
29200000000	48303
29300000000	48400
29400000000	48315
29500000000	48458
29600000000	48956
29700000000	48427
29800000000	48777
29900000000	48114
30000000000	48359
30100000000	48201
30200000000	48410
30300000000	48459
30400000000	48523
30500000000	48706
30600000000	48969
30700000000	48707
30800000000	48666
30900000000	48382
31000000000	48606
31100000000	48191
31200000000	48396
31300000000	48725
31400000000	48101
31500000000	48510
31600000000	48400
31700000000	47836
31800000000	48308
31900000000	48408
32000000000	48263
32100000000	48291
32200000000	48579
32300000000	48613
32400000000	48135
32500000000	48218
32600000000	48317
32700000000	48873
32800000000	48647
32900000000	48515
33000000000	48372
33100000000	48109
33200000000	48131
33300000000	48174
33400000000	48095
33500000000	48455
33600000000	48674
33700000000	48589
33800000000	48496
33900000000	48846
34000000000	48995
34100000000	48468
34200000000	48281
34300000000	48580
34400000000	48706
34500000000	48594
34600000000	48906
34700000000	48075
34800000000	48197
34900000000	48399
35000000000	48926
35100000000	48559
35200000000	48639
35300000000	48405
35400000000	47904
35500000000	48092
35600000000	48551
35700000000	48570
35800000000	48487
35900000000	48696
36000000000	48799
36100000000	48498
36200000000	48227
36300000000	48299
36400000000	48549
36500000000	48531
36600000000	48555
36700000000	48575
36800000000	48330
36900000000	48272
37000000000	48785
37100000000	48817
37200000000	48918
37300000000	48970
37400000000	48958
37500000000	48697
37600000000	48559
37700000000	48227
37800000000	48640
37900000000	48568
38000000000	48611
38100000000	48601
38200000000	48331
38300000000	48787
38400000000	48569
38500000000	48793
38600000000	48799
38700000000	48556
38800000000	48570
38900000000	48679
39000000000	48673
39100000000	48163
39200000000	48749
39300000000	48721
39400000000	48495
39500000000	48522
39600000000	48563
39700000000	48687
39800000000	48948
39900000000	48550
40000000000	48636
40100000000	48854
40200000000	48328
40300000000	48704
40400000000	48228
40500000000	48822
40600000000	48426
40700000000	48239
40800000000	48650
40900000000	48616
41000000000	48568
41100000000	48491
41200000000	48376
41300000000	48028
41400000000	48251
41500000000	48938
41600000000	48577
41700000000	48417
41800000000	48499
41900000000	48697
42000000000	48485
42100000000	48344
42200000000	48557
42300000000	48260
42400000000	48511
42500000000	48650
42600000000	48622
42700000000	48615
42800000000	48935
42900000000	48505
43000000000	48586
43100000000	48390
43200000000	48641
43300000000	48327
43400000000	48799
43500000000	48306
43600000000	48476
43700000000	48686
43800000000	48554
43900000000	48667
44000000000	48705
44100000000	48515
44200000000	48663
44300000000	48232
44400000000	48571
44500000000	48544
44600000000	48615
44700000000	48451
44800000000	48769
44900000000	48540
45000000000	48729
45100000000	48435
45200000000	48486
45300000000	48536
45400000000	48790
45500000000	48510
45600000000	48887
45700000000	48645
45800000000	48638
45900000000	48712
46000000000	49164
46100000000	48502
46200000000	48540
46300000000	49043
46400000000	48586
46500000000	48396
46600000000	48607
46700000000	48878
46800000000	48789
46900000000	48763
47000000000	48611
47100000000	48523
47200000000	48936
47300000000	48473
47400000000	48655
47500000000	48593
47600000000	48210
47700000000	48309
47800000000	48474
47900000000	48406
48000000000	48373
48100000000	48389
48200000000	48503
48300000000	48596
48400000000	48395
48500000000	48720
48600000000	48940
48700000000	48558
48800000000	48670
48900000000	48419
49000000000	48572
49100000000	48407
49200000000	48406
49300000000	48556
49400000000	48623
49500000000	48259
49600000000	48493
49700000000	48488
49800000000	48782
49900000000	48405
50000000000	48770
50100000000	49027
50200000000	49289
50300000000	49139
50400000000	49583
50500000000	49842
50600000000	49731
50700000000	49853
50800000000	49784
50900000000	50115
51000000000	49545
51100000000	49787
51200000000	49437
51300000000	49739
51400000000	50480
51500000000	49560
51600000000	49800
51700000000	50285
51800000000	49992
51900000000	50042
52000000000	49873
52100000000	49820
52200000000	50341
52300000000	50022
52400000000	49945
52500000000	50112
52600000000	50130
52700000000	50167
52800000000	50207
52900000000	50054
53000000000	49940
53100000000	49956
53200000000	50036
53300000000	50249
53400000000	50507
53500000000	49907
53600000000	50013
53700000000	50079
53800000000	50050
53900000000	50258
54000000000	50243
54100000000	50056
54200000000	50007
54300000000	49661
54400000000	49766
54500000000	50076
54600000000	50223
54700000000	50059
54800000000	50027
54900000000	50153
55000000000	50141
55100000000	49817
55200000000	50164
55300000000	50034
55400000000	50144
55500000000	50144
55600000000	49915
55700000000	49890
55800000000	49546
55900000000	50007
56000000000	50051
56100000000	49890
56200000000	49926
56300000000	50228
56400000000	50067
56500000000	49955
56600000000	50070
56700000000	50181
56800000000	50068
56900000000	49912
57000000000	50225
57100000000	49991
57200000000	50387
57300000000	50101
57400000000	50012
57500000000	49890
57600000000	50257
57700000000	49921
57800000000	50157
57900000000	49853
58000000000	50019
58100000000	49587
58200000000	49986
58300000000	50485
58400000000	49854
58500000000	49729
58600000000	49985
58700000000	50151
58800000000	50048
58900000000	49991
59000000000	49561
59100000000	49969
59200000000	49946
59300000000	49671
59400000000	50245
59500000000	49765
59600000000	50253
59700000000	49911
59800000000	49753
59900000000	50105
60000000000	49946
60100000000	49926
60200000000	49373
60300000000	49930
60400000000	50078
60500000000	50261
60600000000	50168
60700000000	50018
60800000000	50007
60900000000	50555
61000000000	49831
61100000000	50109
61200000000	50336
61300000000	50080
61400000000	50254
61500000000	49914
61600000000	49656
61700000000	49641
61800000000	49871
61900000000	50182
62000000000	49887
62100000000	49756
62200000000	49816
62300000000	49807
62400000000	49836
62500000000	50209
62600000000	50016
62700000000	50251
62800000000	50249
62900000000	49508
63000000000	49550
63100000000	49979
63200000000	49813
63300000000	49957
63400000000	49897
63500000000	49744
63600000000	49833
63700000000	50057
63800000000	50070
63900000000	49432
64000000000	50273
64100000000	49690
64200000000	49704
64300000000	50228
64400000000	49691
64500000000	49837
64600000000	49813
64700000000	49856
64800000000	49719
64900000000	50011
65000000000	49750
65100000000	49882
65200000000	49894
65300000000	50073
65400000000	50113
65500000000	50014
65600000000	49990
65700000000	49770
65800000000	50069
65900000000	49685
66000000000	49721
66100000000	49916
66200000000	49926
66300000000	50128
66400000000	50127
66500000000	50349
66600000000	50100
66700000000	49637
66800000000	49911
66900000000	49939
67000000000	49643
67100000000	50132
67200000000	49980
67300000000	49902
67400000000	50187
67500000000	49742
67600000000	49726
67700000000	50242
67800000000	49554
67900000000	49834
68000000000	50026
68100000000	50280
68200000000	50166
68300000000	49781
68400000000	49926
68500000000	50319
68600000000	49934
68700000000	49846
68800000000	50028
68900000000	49478
69000000000	50091
69100000000	50058
69200000000	50069
69300000000	50233
69400000000	49800
69500000000	49717
69600000000	49986
69700000000	50062
69800000000	49979
69900000000	49718
70000000000	50300
70100000000	50408
70200000000	49762
70300000000	49818
70400000000	49965
70500000000	50096
70600000000	50216
70700000000	50531
70800000000	49866
70900000000	49815
71000000000	50222
71100000000	49504
71200000000	50110
71300000000	49739
71400000000	49571
71500000000	49974
71600000000	50111
71700000000	49964
71800000000	49463
71900000000	49845
72000000000	50165
72100000000	49751
72200000000	50316
72300000000	49658
72400000000	49938
72500000000	49766
72600000000	50485
72700000000	50275
72800000000	49881
72900000000	49884
73000000000	49776
73100000000	49999
73200000000	49315
73300000000	49759
73400000000	50059
73500000000	50284
73600000000	49711
73700000000	49889
73800000000	50244
73900000000	50009
74000000000	50113
74100000000	49947
74200000000	49675
74300000000	49940
74400000000	49979
74500000000	49709
74600000000	49784
74700000000	49420
74800000000	50207
74900000000	49786
75000000000	49862
75100000000	49728
75200000000	48711
75300000000	49200
75400000000	49281
75500000000	48501
75600000000	48805
75700000000	48607
75800000000	49056
75900000000	48555
76000000000	48584
76100000000	48362
76200000000	48411
76300000000	48561
76400000000	48297
76500000000	48480
76600000000	48669
76700000000	48349
76800000000	48670
76900000000	48248
77000000000	48709
77100000000	48436
77200000000	48480
77300000000	48071
77400000000	47799
77500000000	48314
77600000000	48246
77700000000	48067
77800000000	48993
77900000000	48321
78000000000	48487
78100000000	48273
78200000000	48589
78300000000	48808
78400000000	48441
78500000000	48768
78600000000	48194
78700000000	48160
78800000000	48384
78900000000	48603
79000000000	48227
79100000000	48553
79200000000	48248
79300000000	48411
79400000000	48334
79500000000	48416
79600000000	48904
79700000000	48465
79800000000	48782
79900000000	48125
80000000000	48231
80100000000	48248
80200000000	48434
80300000000	48401
80400000000	48549
80500000000	48636
80600000000	49023
80700000000	48667
80800000000	48595
80900000000	48453
81000000000	48540
81100000000	48218
81200000000	48369
81300000000	48701
81400000000	48049
81500000000	48549
81600000000	48346
81700000000	47820
81800000000	48308
81900000000	48318
82000000000	48301
82100000000	48271
82200000000	48531
82300000000	48593
82400000000	48173
82500000000	48167
82600000000	48334
82700000000	48916
82800000000	48510
82900000000	48523
83000000000	48444
83100000000	48060
83200000000	48136
83300000000	48092
83400000000	48096
83500000000	48487
83600000000	48631
83700000000	48570
83800000000	48447
83900000000	48898
84000000000	48939
84100000000	48439
84200000000	48329
84300000000	48551
84400000000	48648
84500000000	48578
84600000000	48908
84700000000	48048
84800000000	48224
84900000000	48357
85000000000	48941
85100000000	48461
85200000000	48662
85300000000	48417
85400000000	47870
85500000000	48146
85600000000	48456
85700000000	48555
85800000000	48539
85900000000	48690
86000000000	48729
86100000000	48505
86200000000	48243
86300000000	48262
86400000000	48527
86500000000	48554
86600000000	48515
86700000000	48502
86800000000	48423
86900000000	48203
87000000000	48772
87100000000	48786
87200000000	48901
87300000000	48954
87400000000	48909
87500000000	48715
87600000000	48578
87700000000	48132
87800000000	48696
87900000000	48526
88000000000	48605
88100000000	48597
88200000000	48235
88300000000	48852
88400000000	48525
88500000000	48806
88600000000	48797
88700000000	48536
88800000000	48542
88900000000	48698
89000000000	48587
89100000000	48218
89200000000	48668
89300000000	48726
89400000000	48535
89500000000	48513
89600000000	48499
89700000000	48679
89800000000	48975
89900000000	48508
90000000000	48569
90100000000	48884
90200000000	48353
90300000000	48650
90400000000	48236
90500000000	48761
90600000000	48440
90700000000	48226
90800000000	48563
90900000000	48621
91000000000	48580
91100000000	48437
91200000000	48467
91300000000	48039
91400000000	48204
91500000000	48905
91600000000	48521
91700000000	48453
91800000000	48484
91900000000	48654
92000000000	48491
92100000000	48322
92200000000	48549
92300000000	48270
92400000000	48509
92500000000	48580
92600000000	48630
92700000000	48592
92800000000	48939
92900000000	48496
93000000000	48594
93100000000	48290
93200000000	48711
93300000000	48196
93400000000	48759
93500000000	48397
93600000000	48438
93700000000	48667
93800000000	48504
93900000000	48668
94000000000	48705
94100000000	48474
94200000000	48659
94300000000	48214
94400000000	48556
94500000000	48435
94600000000	48713
94700000000	48407
94800000000	48765
94900000000	48521
95000000000	48720
95100000000	48457
95200000000	48495
95300000000	48584
95400000000	48693
95500000000	48421
95600000000	48914
95700000000	48652
95800000000	48557
95900000000	48723
96000000000	49186
96100000000	48498
96200000000	48526
96300000000	49068
96400000000	48513
96500000000	48425
96600000000	48597
96700000000	48850
96800000000	48777
96900000000	48755
97000000000	48576
97100000000	48497
97200000000	48863
97300000000	48456
97400000000	48706
97500000000	48563
97600000000	48178
97700000000	48238
97800000000	48516
97900000000	48416
98000000000	48384
98100000000	48322
98200000000	48513
98300000000	48569
98400000000	48355
98500000000	48686
98600000000	48964
98700000000	48534
98800000000	48718
98900000000	48313
99000000000	48618
99100000000	48437
99200000000	48405
99300000000	48483
99400000000	48627
99500000000	48246
99600000000	48437
99700000000	48474
99800000000	48778
99900000000	48456
