"Time (ps)"	"Counts per bin"
0	49213
100000000	49225
200000000	49634
300000000	49648
400000000	49811
500000000	50077
600000000	50062
700000000	50249
800000000	49886
900000000	50045
1000000000	50072
1100000000	49813
1200000000	50035
1300000000	49930
1400000000	50101
1500000000	49986
1600000000	49752
1700000000	49694
1800000000	49774
1900000000	50633
2000000000	50280
2100000000	49848
2200000000	49987
2300000000	49675
2400000000	50012
2500000000	50072
2600000000	49378
2700000000	49605
2800000000	50289
2900000000	50337
3000000000	50184
3100000000	50259
3200000000	49949
3300000000	50173
3400000000	50414
3500000000	50118
3600000000	50004
3700000000	49887
3800000000	50194
3900000000	49710
4000000000	49671
4100000000	49443
4200000000	49734
4300000000	50022
4400000000	49912
4500000000	50401
4600000000	49772
4700000000	50079
4800000000	49567
4900000000	49781
5000000000	49919
5100000000	50816
5200000000	50171
5300000000	50108
5400000000	49956
5500000000	49533
5600000000	49740
5700000000	50002
5800000000	50112
5900000000	50158
6000000000	50299
6100000000	49406
6200000000	49921
6300000000	50306
6400000000	49754
6500000000	49876
6600000000	50179
6700000000	50149
6800000000	50277
6900000000	50039
7000000000	50528
7100000000	49894
7200000000	50230
7300000000	49691
7400000000	50202
7500000000	50122
7600000000	49723
7700000000	49980
7800000000	49843
7900000000	50487
8000000000	49749
8100000000	50656
8200000000	50091
8300000000	50192
8400000000	50104
8500000000	50155
8600000000	50132
8700000000	50270
8800000000	49967
8900000000	50137
9000000000	50015
9100000000	49579
9200000000	50691
9300000000	49882
9400000000	50486
9500000000	49716
9600000000	49848
9700000000	49977
9800000000	50150
9900000000	50032
10000000000	49922
10100000000	49886
10200000000	50267
10300000000	50055
10400000000	50180
10500000000	50218
10600000000	49895
10700000000	50564
10800000000	50624
10900000000	50111
11000000000	50385
11100000000	50095
11200000000	50131
11300000000	50177
11400000000	50463
11500000000	50311
11600000000	49860
11700000000	50543
11800000000	50128
11900000000	50235
12000000000	50107
12100000000	50157
12200000000	50116
12300000000	50097
12400000000	50105
12500000000	49820
12600000000	50015
12700000000	50124
12800000000	50245
12900000000	49610
13000000000	50084
13100000000	49947
13200000000	49876
13300000000	49897
13400000000	50109
13500000000	50076
13600000000	50189
13700000000	50227
13800000000	49909
13900000000	50057
14000000000	49950
14100000000	50319
14200000000	49942
14300000000	50032
14400000000	50337
14500000000	50107
14600000000	49679
14700000000	49974
14800000000	50022
14900000000	49530
15000000000	49674
15100000000	49602
15200000000	50317
15300000000	50051
15400000000	50260
15500000000	49582
15600000000	50695
15700000000	50192
15800000000	49884
15900000000	49628
16000000000	49777
16100000000	49786
16200000000	49752
16300000000	50100
16400000000	49669
16500000000	50119
16600000000	49668
16700000000	50188
16800000000	50083
16900000000	49628
17000000000	50091
17100000000	50222
17200000000	50105
17300000000	50129
17400000000	49395
17500000000	49759
17600000000	49904
17700000000	50158
17800000000	49934
17900000000	49629
18000000000	50102
18100000000	50210
18200000000	49615
18300000000	49519
18400000000	49869
18500000000	50003
18600000000	49702
18700000000	50291
18800000000	49797
18900000000	50156
19000000000	49721
19100000000	49862
19200000000	50056
19300000000	49938
19400000000	50155
19500000000	49790
19600000000	49815
19700000000	49602
19800000000	49832
19900000000	50223
20000000000	49691
20100000000	49635
20200000000	49921
20300000000	50017
20400000000	49958
20500000000	50113
20600000000	50019
20700000000	49634
20800000000	50038
20900000000	50088
21000000000	49664
21100000000	50171
21200000000	50467
21300000000	50272
21400000000	49929
21500000000	50240
21600000000	50295
21700000000	50095
21800000000	49864
21900000000	50001
22000000000	49971
22100000000	49768
22200000000	50036
22300000000	49978
22400000000	50294
22500000000	50150
22600000000	50020
22700000000	49619
22800000000	50170
22900000000	49908
23000000000	50054
23100000000	50161
23200000000	50031
23300000000	49787
23400000000	49889
23500000000	49791
23600000000	49871
23700000000	50077
23800000000	49918
23900000000	49747
24000000000	50024
24100000000	49784
24200000000	50278
24300000000	49870
24400000000	50181
24500000000	49967
24600000000	49908
24700000000	49726
24800000000	50042
24900000000	50090
25000000000	50041
25100000000	49702
25200000000	49838
25300000000	49370
25400000000	49024
25500000000	49112
25600000000	49255
25700000000	48883
25800000000	48869
25900000000	48884
26000000000	48996
26100000000	48958
26200000000	48985
26300000000	48751
26400000000	48755
26500000000	48347
26600000000	48283
26700000000	48629
26800000000	48481
26900000000	48902
27000000000	49047
27100000000	49317
27200000000	48322
27300000000	48837
27400000000	48770
27500000000	48590
27600000000	48760
27700000000	48958
27800000000	48970
27900000000	48705
28000000000	48641
28100000000	48862
28200000000	48853
28300000000	48583
28400000000	48597
28500000000	48716
28600000000	48650
28700000000	48990
28800000000	48855
28900000000	48448
29000000000	48829
29100000000	48871
29200000000	48896
29300000000	48664
29400000000	48928
29500000000	49173
29600000000	49071
29700000000	48891
29800000000	48983
29900000000	48636
30000000000	48939
30100000000	48969
30200000000	49301
30300000000	48930
30400000000	48431
30500000000	49066
30600000000	49031
30700000000	48628
30800000000	48678
30900000000	49322
31000000000	49016
31100000000	49220
31200000000	48876
31300000000	48679
31400000000	48954
31500000000	48615
31600000000	48988
31700000000	48889
31800000000	48834
31900000000	48681
32000000000	48629
32100000000	48919
32200000000	48953
32300000000	48894
32400000000	48932
32500000000	48811
32600000000	48722
32700000000	48875
32800000000	48646
32900000000	48762
33000000000	48852
33100000000	48979
33200000000	48814
33300000000	48636
33400000000	48684
33500000000	48832
33600000000	48750
33700000000	48409
33800000000	48816
33900000000	48971
34000000000	48863
34100000000	48768
34200000000	48907
34300000000	48717
34400000000	48282
34500000000	48512
34600000000	48953
34700000000	48739
34800000000	48488
34900000000	48988
35000000000	48559
35100000000	49096
35200000000	49075
35300000000	48865
35400000000	48626
35500000000	48964
35600000000	48729
35700000000	49220
35800000000	48811
35900000000	48708
36000000000	48760
36100000000	48798
36200000000	48483
36300000000	48796
36400000000	49367
36500000000	48539
36600000000	48830
36700000000	48722
36800000000	48689
36900000000	48605
37000000000	49153
37100000000	48807
37200000000	48807
37300000000	48860
37400000000	48988
37500000000	48812
37600000000	48965
37700000000	48605
37800000000	49315
37900000000	48805
38000000000	48955
38100000000	49127
38200000000	49045
38300000000	48997
38400000000	49082
38500000000	49022
38600000000	48510
38700000000	48963
38800000000	48761
38900000000	49000
39000000000	49236
39100000000	48695
39200000000	48699
39300000000	49265
39400000000	49085
39500000000	48867
39600000000	49197
39700000000	48797
39800000000	49269
39900000000	48832
40000000000	48426
40100000000	48529
40200000000	49047
40300000000	48755
40400000000	49118
40500000000	48553
40600000000	48609
40700000000	49249
40800000000	48428
40900000000	48792
41000000000	49303
41100000000	48790
41200000000	49104
41300000000	48777
41400000000	49117
41500000000	48953
41600000000	48851
41700000000	48797
41800000000	48792
41900000000	49518
42000000000	48879
42100000000	48831
42200000000	48629
42300000000	49062
42400000000	48854
42500000000	48626
42600000000	48967
42700000000	49020
42800000000	48544
42900000000	49004
43000000000	48804
43100000000	49142
43200000000	49020
43300000000	49007
43400000000	48873
43500000000	49062
43600000000	49157
43700000000	49164
43800000000	49130
43900000000	49282
44000000000	49035
44100000000	48742
44200000000	48505
44300000000	48649
44400000000	48900
44500000000	49270
44600000000	48860
44700000000	48675
44800000000	48842
44900000000	48709
45000000000	49196
45100000000	49377
45200000000	48626
45300000000	48546
45400000000	48706
45500000000	48901
45600000000	49436
45700000000	48982
45800000000	48660
45900000000	49061
46000000000	49092
46100000000	49151
46200000000	48848
46300000000	48856
46400000000	48962
46500000000	48768
46600000000	48993
46700000000	49299
46800000000	48734
46900000000	49148
47000000000	49182
47100000000	48665
47200000000	48987
47300000000	49460
47400000000	49314
47500000000	48986
47600000000	49118
47700000000	48920
47800000000	49084
47900000000	48799
48000000000	48643
48100000000	49071
48200000000	49202
48300000000	48761
48400000000	48479
48500000000	48769
48600000000	48970
48700000000	48955
48800000000	48864
48900000000	49507
49000000000	48643
49100000000	48920
49200000000	48653
49300000000	48822
49400000000	48982
49500000000	49189
49600000000	48931
49700000000	48851
49800000000	49018
49900000000	48980
50000000000	49243
50100000000	49033
50200000000	49666
50300000000	49592
50400000000	49599
50500000000	50153
50600000000	49964
50700000000	50240
50800000000	49861
50900000000	49949
51000000000	50063
51100000000	49695
51200000000	49936
51300000000	49964
51400000000	50032
51500000000	49900
51600000000	49741
51700000000	49564
51800000000	49722
51900000000	50598
52000000000	50264
52100000000	49774
52200000000	49954
52300000000	49577
52400000000	49996
52500000000	50009
52600000000	49299
52700000000	49588
52800000000	50239
52900000000	50281
53000000000	50110
53100000000	50196
53200000000	49869
53300000000	50157
53400000000	50343
53500000000	50129
53600000000	49917
53700000000	49917
53800000000	50043
53900000000	49697
54000000000	49567
54100000000	49465
54200000000	49650
54300000000	49941
54400000000	49812
54500000000	50366
54600000000	49739
54700000000	50045
54800000000	49540
54900000000	49638
55000000000	49894
55100000000	50777
55200000000	50136
55300000000	49984
55400000000	49879
55500000000	49509
55600000000	49745
55700000000	49898
55800000000	50065
55900000000	50088
56000000000	50262
56100000000	49338
56200000000	49908
56300000000	50186
56400000000	49746
56500000000	49828
56600000000	50122
56700000000	50026
56800000000	50293
56900000000	49915
57000000000	50474
57100000000	49840
57200000000	50208
57300000000	49672
57400000000	50142
57500000000	50056
57600000000	49637
57700000000	49962
57800000000	49726
57900000000	50448
58000000000	49726
58100000000	50615
58200000000	50089
58300000000	50068
58400000000	50089
58500000000	50060
58600000000	50108
58700000000	50160
58800000000	49957
58900000000	50027
59000000000	50056
59100000000	49423
59200000000	50630
59300000000	49902
59400000000	50411
59500000000	49741
59600000000	49761
59700000000	49893
59800000000	50137
59900000000	49912
60000000000	49900
60100000000	49836
60200000000	50211
60300000000	49971
60400000000	50169
60500000000	50180
60600000000	49857
60700000000	50400
60800000000	50620
60900000000	50058
61000000000	50302
61100000000	50071
61200000000	50161
61300000000	50101
61400000000	50338
61500000000	50266
61600000000	49790
61700000000	50506
61800000000	50153
61900000000	50155
62000000000	50010
62100000000	50108
62200000000	50084
62300000000	50032
62400000000	50023
62500000000	49836
62600000000	49985
62700000000	50025
62800000000	50226
62900000000	49537
63000000000	50011
63100000000	49901
63200000000	49817
63300000000	49886
63400000000	50030
63500000000	50121
63600000000	50066
63700000000	50199
63800000000	49803
63900000000	49963
64000000000	49937
64100000000	50327
64200000000	49817
64300000000	49987
64400000000	50203
64500000000	50148
64600000000	49634
64700000000	49865
64800000000	50007
64900000000	49454
65000000000	49676
65100000000	49518
65200000000	50147
65300000000	50064
65400000000	50255
65500000000	49526
65600000000	50617
65700000000	50126
65800000000	49824
65900000000	49576
66000000000	49715
66100000000	49799
66200000000	49606
66300000000	50043
66400000000	49649
66500000000	50101
66600000000	49570
66700000000	50134
66800000000	50048
66900000000	49591
67000000000	49998
67100000000	50163
67200000000	50067
67300000000	50078
67400000000	49408
67500000000	49603
67600000000	49845
67700000000	50107
67800000000	49907
67900000000	49630
68000000000	50005
68100000000	50161
68200000000	49566
68300000000	49509
68400000000	49807
68500000000	49872
68600000000	49689
68700000000	50247
68800000000	49682
68900000000	50126
69000000000	49635
69100000000	49801
69200000000	50041
69300000000	49810
69400000000	50136
69500000000	49743
69600000000	49831
69700000000	49459
69800000000	49834
69900000000	50088
70000000000	49695
70100000000	49639
70200000000	49808
70300000000	49913
70400000000	50003
70500000000	50003
70600000000	49864
70700000000	49696
70800000000	49926
70900000000	50045
71000000000	49622
71100000000	50073
71200000000	50437
71300000000	50264
71400000000	49799
71500000000	50214
71600000000	50242
71700000000	50047
71800000000	49873
71900000000	49893
72000000000	49934
72100000000	49730
72200000000	49943
72300000000	49978
72400000000	50150
72500000000	50232
72600000000	49925
72700000000	49528
72800000000	50090
72900000000	49827
73000000000	50076
73100000000	50062
73200000000	50024
73300000000	49777
73400000000	49804
73500000000	49693
73600000000	49848
73700000000	49989
73800000000	49871
73900000000	49711
74000000000	49952
74100000000	49703
74200000000	50308
74300000000	49680
74400000000	50255
74500000000	49893
74600000000	49790
74700000000	49671
74800000000	50021
74900000000	49969
75000000000	50061
75100000000	49623
75200000000	49789
75300000000	49332
75400000000	48950
75500000000	48968
75600000000	49304
75700000000	48828
75800000000	48732
75900000000	48863
76000000000	49064
76100000000	48927
76200000000	48853
76300000000	48672
76400000000	48696
76500000000	48394
76600000000	48170
76700000000	48567
76800000000	48430
76900000000	48885
77000000000	49007
77100000000	49189
77200000000	48289
77300000000	48790
77400000000	48742
77500000000	48543
77600000000	48634
77700000000	49008
77800000000	48843
77900000000	48634
78000000000	48610
78100000000	48872
78200000000	48721
78300000000	48621
78400000000	48470
78500000000	48727
78600000000	48579
78700000000	49018
78800000000	48752
78900000000	48416
79000000000	48773
79100000000	48742
79200000000	48872
79300000000	48607
79400000000	48863
79500000000	49176
79600000000	48997
79700000000	48814
79800000000	48973
79900000000	48547
80000000000	48871
80100000000	48949
80200000000	49246
80300000000	48908
80400000000	48323
80500000000	49047
80600000000	48954
80700000000	48624
80800000000	48581
80900000000	49338
81000000000	48984
81100000000	49073
81200000000	48864
81300000000	48615
81400000000	48942
81500000000	48549
81600000000	48909
81700000000	48837
81800000000	48826
81900000000	48629
82000000000	48551
82100000000	48896
82200000000	48803
82300000000	48905
82400000000	48884
82500000000	48766
82600000000	48719
82700000000	48746
82800000000	48651
82900000000	48709
83000000000	48809
83100000000	48900
83200000000	48766
83300000000	48502
83400000000	48691
83500000000	48728
83600000000	48760
83700000000	48375
83800000000	48732
83900000000	48870
84000000000	48939
84100000000	48603
84200000000	48912
84300000000	48702
84400000000	48196
84500000000	48407
84600000000	48969
84700000000	48696
84800000000	48465
84900000000	48852
85000000000	48564
85100000000	49004
85200000000	49031
85300000000	48799
85400000000	48565
85500000000	48898
85600000000	48672
85700000000	49180
85800000000	48730
85900000000	48648
86000000000	48793
86100000000	48749
86200000000	48395
86300000000	48736
86400000000	49310
86500000000	48502
86600000000	48775
86700000000	48727
86800000000	48595
86900000000	48631
87000000000	49123
87100000000	48699
87200000000	48777
87300000000	48788
87400000000	48974
87500000000	48699
87600000000	48949
87700000000	48511
87800000000	49252
87900000000	48723
88000000000	48996
88100000000	49001
88200000000	49082
88300000000	48939
88400000000	49035
88500000000	49024
88600000000	48365
88700000000	48876
88800000000	48675
88900000000	49026
89000000000	49184
89100000000	48628
89200000000	48622
89300000000	49226
89400000000	49041
89500000000	48789
89600000000	49149
89700000000	48742
89800000000	49162
89900000000	48821
90000000000	48357
90100000000	48461
90200000000	49060
90300000000	48659
90400000000	49052
90500000000	48502
90600000000	48614
90700000000	49132
90800000000	48399
90900000000	48702
91000000000	49255
91100000000	48776
91200000000	49000
91300000000	48737
91400000000	49006
91500000000	48980
91600000000	48828
91700000000	48684
91800000000	48781
91900000000	49384
92000000000	48824
92100000000	48775
92200000000	48645
92300000000	48965
92400000000	48838
92500000000	48507
92600000000	48853
92700000000	48999
92800000000	48550
92900000000	48942
93000000000	48741
93100000000	49090
93200000000	48981
93300000000	49002
93400000000	48731
93500000000	48990
93600000000	49158
93700000000	49123
93800000000	49041
93900000000	49278
94000000000	48957
94100000000	48708
94200000000	48452
94300000000	48591
94400000000	48795
94500000000	49254
94600000000	48810
94700000000	48631
94800000000	48824
94900000000	48712
95000000000	49111
95100000000	49203
95200000000	48625
95300000000	48491
95400000000	48658
95500000000	48844
95600000000	49262
95700000000	49003
95800000000	48638
95900000000	48990
96000000000	49027
96100000000	49129
96200000000	48838
96300000000	48783
96400000000	48902
96500000000	48707
96600000000	48887
96700000000	49326
96800000000	48685
96900000000	49080
97000000000	49138
97100000000	48640
97200000000	48892
97300000000	49426
97400000000	49271
97500000000	48950
97600000000	49008
97700000000	48924
97800000000	49020
97900000000	48740
98000000000	48674
98100000000	48950
98200000000	49124
98300000000	48714
98400000000	48470
98500000000	48715
98600000000	48912
98700000000	48950
98800000000	48737
98900000000	49486
99000000000	48576
99100000000	48937
99200000000	48606
99300000000	48736
99400000000	48935
99500000000	49102
99600000000	48899
99700000000	48751
99800000000	49021
99900000000	48859
