"Time (ps)"	"Counts per bin"
0	49061
100000000	49129
200000000	49679
300000000	49915
400000000	49889
500000000	49950
600000000	50377
700000000	49420
800000000	49964
900000000	49873
1000000000	49959
1100000000	50412
1200000000	49751
1300000000	50119
1400000000	49987
1500000000	49983
1600000000	50254
1700000000	50298
1800000000	49797
1900000000	50021
2000000000	50054
2100000000	49761
2200000000	50305
2300000000	50448
2400000000	50337
2500000000	50015
2600000000	49792
2700000000	50178
2800000000	49961
2900000000	49579
3000000000	49946
3100000000	50509
3200000000	50132
3300000000	50107
3400000000	49811
3500000000	50304
3600000000	49735
3700000000	49933
3800000000	50005
3900000000	50081
4000000000	50099
4100000000	50219
4200000000	49925
4300000000	49996
4400000000	50263
4500000000	49340
4600000000	49564
4700000000	50003
4800000000	50243
4900000000	50253
5000000000	50209
5100000000	49849
5200000000	49751
5300000000	50377
5400000000	49602
5500000000	49380
5600000000	50181
5700000000	49627
5800000000	49853
5900000000	49726
6000000000	49918
6100000000	50047
6200000000	50049
6300000000	50063
6400000000	49881
6500000000	49893
6600000000	50257
6700000000	50106
6800000000	50043
6900000000	49862
7000000000	50055
7100000000	49939
7200000000	50152
7300000000	50024
7400000000	50184
7500000000	50081
7600000000	49976
7700000000	49839
7800000000	50027
7900000000	50228
8000000000	50056
8100000000	50190
8200000000	50086
8300000000	50046
8400000000	49819
8500000000	49858
8600000000	49726
8700000000	50305
8800000000	50049
8900000000	50300
9000000000	49775
9100000000	49805
9200000000	50009
9300000000	50270
9400000000	50109
9500000000	50298
9600000000	50214
9700000000	50065
9800000000	50356
9900000000	50107
10000000000	50086
10100000000	49832
10200000000	50128
10300000000	50173
10400000000	49942
10500000000	50415
10600000000	50256
10700000000	50349
10800000000	50110
10900000000	50479
11000000000	49445
11100000000	49906
11200000000	49978
11300000000	50216
11400000000	50325
11500000000	50302
11600000000	49664
11700000000	49886
11800000000	50043
11900000000	50091
12000000000	49914
12100000000	49947
12200000000	49624
12300000000	50270
12400000000	49970
12500000000	50553
12600000000	49842
12700000000	49852
12800000000	50159
12900000000	50067
13000000000	50012
13100000000	50186
13200000000	49714
13300000000	49796
13400000000	49955
13500000000	49830
13600000000	49649
13700000000	50333
13800000000	49915
13900000000	50090
14000000000	49902
14100000000	49855
14200000000	50306
14300000000	49971
14400000000	49669
14500000000	50122
14600000000	49910
14700000000	49936
14800000000	50001
14900000000	50181
15000000000	50237
15100000000	50000
15200000000	50555
15300000000	49583
15400000000	49721
15500000000	49632
15600000000	49987
15700000000	49952
15800000000	49689
15900000000	50320
16000000000	49478
16100000000	49956
16200000000	50198
16300000000	50151
16400000000	49791
16500000000	50111
16600000000	49772
16700000000	50234
16800000000	49962
16900000000	49972
17000000000	50352
17100000000	50225
17200000000	49806
17300000000	49801
17400000000	49780
17500000000	50046
17600000000	50221
17700000000	49956
17800000000	49824
17900000000	49897
18000000000	49303
18100000000	50147
18200000000	49822
18300000000	50221
18400000000	50283
18500000000	49556
18600000000	49592
18700000000	50031
18800000000	49974
18900000000	49549
19000000000	49939
19100000000	50171
19200000000	49713
19300000000	49936
19400000000	50030
19500000000	50213
19600000000	49887
19700000000	50172
19800000000	50189
19900000000	50012
20000000000	49669
20100000000	50043
20200000000	49750
20300000000	49745
20400000000	50377
20500000000	49977
20600000000	49818
20700000000	50054
20800000000	50095
20900000000	49787
21000000000	50008
21100000000	49327
21200000000	49758
21300000000	49961
21400000000	49683
21500000000	50379
21600000000	50053
21700000000	49892
21800000000	50191
21900000000	50251
22000000000	49548
22100000000	49822
22200000000	50047
22300000000	50102
22400000000	49879
22500000000	49888
22600000000	50129
22700000000	49766
22800000000	49714
22900000000	49943
23000000000	49419
23100000000	49922
23200000000	50033
23300000000	50196
23400000000	50106
23500000000	50107
23600000000	49465
23700000000	50092
23800000000	49937
23900000000	50316
24000000000	49701
24100000000	50169
24200000000	50082
24300000000	50025
24400000000	50028
24500000000	49989
24600000000	49891
24700000000	49752
24800000000	49719
24900000000	49923
25000000000	49617
25100000000	49307
25200000000	49338
25300000000	48937
25400000000	48948
25500000000	48960
25600000000	48558
25700000000	48569
25800000000	48463
25900000000	48709
26000000000	48770
26100000000	48879
26200000000	48471
26300000000	48476
26400000000	49085
26500000000	48561
26600000000	48431
26700000000	48229
26800000000	48237
26900000000	48412
27000000000	48476
27100000000	48743
27200000000	48564
27300000000	48669
27400000000	48215
27500000000	47978
27600000000	48028
27700000000	48363
27800000000	48868
27900000000	48639
28000000000	48890
28100000000	48674
28200000000	48723
28300000000	48572
28400000000	48704
28500000000	48487
28600000000	48411
28700000000	48162
28800000000	48480
28900000000	48663
29000000000	48710
29100000000	48330
29200000000	48236
29300000000	48375
29400000000	48467
29500000000	48558
29600000000	48523
29700000000	48075
29800000000	48741
29900000000	48771
30000000000	48362
30100000000	48424
30200000000	48504
30300000000	48320
30400000000	48859
30500000000	48678
30600000000	48349
30700000000	48184
30800000000	49056
30900000000	48171
31000000000	48843
31100000000	48415
31200000000	48566
31300000000	48615
31400000000	48540
31500000000	48327
31600000000	48209
31700000000	48758
31800000000	48877
31900000000	49195
32000000000	48376
32100000000	48548
32200000000	48820
32300000000	48583
32400000000	48723
32500000000	48422
32600000000	48439
32700000000	48932
32800000000	48351
32900000000	48910
33000000000	49129
33100000000	48563
33200000000	48650
33300000000	48700
33400000000	48209
33500000000	48784
33600000000	48796
33700000000	48759
33800000000	48422
33900000000	48829
34000000000	49139
34100000000	48205
34200000000	48543
34300000000	48896
34400000000	48655
34500000000	48399
34600000000	48443
34700000000	48561
34800000000	48660
34900000000	48388
35000000000	48934
35100000000	48375
35200000000	49011
35300000000	48338
35400000000	48293
35500000000	48578
35600000000	48206
35700000000	48695
35800000000	48604
35900000000	48722
36000000000	48111
36100000000	48552
36200000000	48861
36300000000	48882
36400000000	48513
36500000000	48577
36600000000	48342
36700000000	48622
36800000000	48418
36900000000	48810
37000000000	48678
37100000000	48923
37200000000	48642
37300000000	48603
37400000000	48710
37500000000	48288
37600000000	48716
37700000000	48918
37800000000	48566
37900000000	48748
38000000000	48655
38100000000	48981
38200000000	48660
38300000000	48674
38400000000	48814
38500000000	48656
38600000000	49113
38700000000	48519
38800000000	48426
38900000000	48848
39000000000	48551
39100000000	48565
39200000000	48694
39300000000	48591
39400000000	48840
39500000000	48524
39600000000	48363
39700000000	48786
39800000000	48899
39900000000	48645
40000000000	48585
40100000000	47884
40200000000	48908
40300000000	48636
40400000000	48933
40500000000	48732
40600000000	49414
40700000000	48424
40800000000	49134
40900000000	48717
41000000000	49210
41100000000	48404
41200000000	48668
41300000000	49103
41400000000	48828
41500000000	48744
41600000000	48731
41700000000	48686
41800000000	48509
41900000000	48962
42000000000	49011
42100000000	48830
42200000000	49092
42300000000	48900
42400000000	48967
42500000000	48886
42600000000	48691
42700000000	48696
42800000000	49231
42900000000	48846
43000000000	48675
43100000000	49230
43200000000	48511
43300000000	49052
43400000000	48979
43500000000	49114
43600000000	48882
43700000000	48921
43800000000	48378
43900000000	48791
44000000000	49024
44100000000	48982
44200000000	48950
44300000000	48821
44400000000	48527
44500000000	49126
44600000000	48157
44700000000	48877
44800000000	49102
44900000000	48857
45000000000	49070
45100000000	49048
45200000000	48870
45300000000	48855
45400000000	48950
45500000000	48715
45600000000	48700
45700000000	48744
45800000000	48918
45900000000	48899
46000000000	48533
46100000000	48310
46200000000	48434
46300000000	48940
46400000000	48909
46500000000	49077
46600000000	48565
46700000000	48506
46800000000	48597
46900000000	48946
47000000000	48794
47100000000	48838
47200000000	48828
47300000000	48854
47400000000	48851
47500000000	48631
47600000000	48544
47700000000	48990
47800000000	48343
47900000000	49171
48000000000	48965
48100000000	48772
48200000000	48647
48300000000	48846
48400000000	48567
48500000000	48777
48600000000	48840
48700000000	48936
48800000000	48660
48900000000	48699
49000000000	48479
49100000000	49065
49200000000	48985
49300000000	48798
49400000000	49096
49500000000	49049
49600000000	49080
49700000000	48814
49800000000	48882
49900000000	48911
50000000000	48918
50100000000	49117
50200000000	49660
50300000000	49926
50400000000	49829
50500000000	49915
50600000000	50364
50700000000	49377
50800000000	49951
50900000000	49814
51000000000	49933
51100000000	50298
51200000000	49794
51300000000	50113
51400000000	49904
51500000000	49987
51600000000	50254
51700000000	50286
51800000000	49810
51900000000	50043
52000000000	49946
52100000000	49673
52200000000	50334
52300000000	50374
52400000000	50292
52500000000	50056
52600000000	49775
52700000000	50128
52800000000	49923
52900000000	49598
53000000000	49894
53100000000	50468
53200000000	50079
53300000000	50098
53400000000	49794
53500000000	50250
53600000000	49732
53700000000	49911
53800000000	49936
53900000000	50072
54000000000	50034
54100000000	50237
54200000000	49914
54300000000	49920
54400000000	50250
54500000000	49326
54600000000	49544
54700000000	49963
54800000000	50173
54900000000	50204
55000000000	50223
55100000000	49890
55200000000	49632
55300000000	50355
55400000000	49638
55500000000	49419
55600000000	50038
55700000000	49575
55800000000	49874
55900000000	49697
56000000000	49917
56100000000	50002
56200000000	49949
56300000000	50085
56400000000	49871
56500000000	49930
56600000000	50138
56700000000	50123
56800000000	50002
56900000000	49856
57000000000	50023
57100000000	49907
57200000000	50162
57300000000	50000
57400000000	50097
57500000000	50047
57600000000	49992
57700000000	49758
57800000000	49979
57900000000	50236
58000000000	50035
58100000000	50187
58200000000	50041
58300000000	50061
58400000000	49710
58500000000	49882
58600000000	49643
58700000000	50248
58800000000	50065
58900000000	50296
59000000000	49766
59100000000	49710
59200000000	49945
59300000000	50234
59400000000	50144
59500000000	50257
59600000000	50157
59700000000	49921
59800000000	50461
59900000000	50099
60000000000	50037
60100000000	49766
60200000000	50113
60300000000	50152
60400000000	49914
60500000000	50371
60600000000	50229
60700000000	50261
60800000000	50161
60900000000	50403
61000000000	49526
61100000000	49769
61200000000	49962
61300000000	50152
61400000000	50336
61500000000	50301
61600000000	49692
61700000000	49774
61800000000	50017
61900000000	50067
62000000000	49878
62100000000	49941
62200000000	49640
62300000000	50168
62400000000	49907
62500000000	50485
62600000000	49855
62700000000	49861
62800000000	50188
62900000000	49991
63000000000	49952
63100000000	50184
63200000000	49633
63300000000	49807
63400000000	49866
63500000000	49791
63600000000	49693
63700000000	50265
63800000000	49902
63900000000	50024
64000000000	49968
64100000000	49761
64200000000	50266
64300000000	49942
64400000000	49675
64500000000	50035
64600000000	49915
64700000000	49818
64800000000	50044
64900000000	50211
65000000000	50083
65100000000	50051
65200000000	50422
65300000000	49700
65400000000	49609
65500000000	49545
65600000000	49981
65700000000	49904
65800000000	49660
65900000000	50312
66000000000	49476
66100000000	49875
66200000000	50196
66300000000	50070
66400000000	49827
66500000000	50090
66600000000	49740
66700000000	50206
66800000000	49925
66900000000	49951
67000000000	50301
67100000000	50171
67200000000	49803
67300000000	49785
67400000000	49776
67500000000	49997
67600000000	50142
67700000000	49992
67800000000	49773
67900000000	49830
68000000000	49309
68100000000	50098
68200000000	49823
68300000000	50185
68400000000	50188
68500000000	49585
68600000000	49590
68700000000	49992
68800000000	49902
68900000000	49639
69000000000	49760
69100000000	50157
69200000000	49780
69300000000	49800
69400000000	50019
69500000000	50248
69600000000	49900
69700000000	50022
69800000000	50205
69900000000	49983
70000000000	49681
70100000000	49926
70200000000	49769
70300000000	49774
70400000000	50268
70500000000	50000
70600000000	49786
70700000000	50010
70800000000	50073
70900000000	49769
71000000000	49991
71100000000	49345
71200000000	49658
71300000000	49924
71400000000	49694
71500000000	50279
71600000000	50035
71700000000	49836
71800000000	50144
71900000000	50272
72000000000	49571
72100000000	49708
72200000000	50111
72300000000	50069
72400000000	49759
72500000000	49915
72600000000	50161
72700000000	49689
72800000000	49733
72900000000	49923
73000000000	49328
73100000000	49896
73200000000	50010
73300000000	50137
73400000000	50109
73500000000	50059
73600000000	49448
73700000000	50019
73800000000	49943
73900000000	50244
74000000000	49685
74100000000	50158
74200000000	50086
74300000000	49911
74400000000	50086
74500000000	49918
74600000000	49794
74700000000	49764
74800000000	49739
74900000000	49917
75000000000	49547
75100000000	49300
75200000000	49341
75300000000	48852
75400000000	48909
75500000000	48928
75600000000	48596
75700000000	48529
75800000000	48389
75900000000	48708
76000000000	48769
76100000000	48799
76200000000	48463
76300000000	48388
76400000000	49105
76500000000	48597
76600000000	48366
76700000000	48202
76800000000	48145
76900000000	48364
77000000000	48572
77100000000	48644
77200000000	48439
77300000000	48794
77400000000	48173
77500000000	47913
77600000000	48024
77700000000	48319
77800000000	48883
77900000000	48558
78000000000	48859
78100000000	48584
78200000000	48770
78300000000	48543
78400000000	48640
78500000000	48450
78600000000	48383
78700000000	48156
78800000000	48476
78900000000	48584
79000000000	48663
79100000000	48397
79200000000	48142
79300000000	48397
79400000000	48384
79500000000	48478
79600000000	48569
79700000000	48088
79800000000	48688
79900000000	48773
80000000000	48318
80100000000	48399
80200000000	48373
80300000000	48445
80400000000	48751
80500000000	48626
80600000000	48365
80700000000	48141
80800000000	49010
80900000000	48169
81000000000	48722
81100000000	48371
81200000000	48580
81300000000	48643
81400000000	48517
81500000000	48282
81600000000	48129
81700000000	48747
81800000000	48810
81900000000	49144
82000000000	48454
82100000000	48431
82200000000	48791
82300000000	48652
82400000000	48687
82500000000	48309
82600000000	48553
82700000000	48834
82800000000	48366
82900000000	48792
83000000000	49113
83100000000	48544
83200000000	48625
83300000000	48697
83400000000	48116
83500000000	48871
83600000000	48781
83700000000	48671
83800000000	48383
83900000000	48811
84000000000	49067
84100000000	48290
84200000000	48472
84300000000	48848
84400000000	48619
84500000000	48420
84600000000	48376
84700000000	48570
84800000000	48626
84900000000	48315
85000000000	48957
85100000000	48313
85200000000	48931
85300000000	48347
85400000000	48332
85500000000	48500
85600000000	48206
85700000000	48616
85800000000	48590
85900000000	48720
86000000000	48026
86100000000	48558
86200000000	48725
86300000000	48904
86400000000	48578
86500000000	48506
86600000000	48344
86700000000	48509
86800000000	48449
86900000000	48772
87000000000	48667
87100000000	48898
87200000000	48566
87300000000	48611
87400000000	48657
87500000000	48210
87600000000	48707
87700000000	48872
87800000000	48544
87900000000	48767
88000000000	48648
88100000000	48845
88200000000	48766
88300000000	48594
88400000000	48764
88500000000	48595
88600000000	49129
88700000000	48490
88800000000	48364
88900000000	48819
89000000000	48582
89100000000	48462
89200000000	48715
89300000000	48561
89400000000	48778
89500000000	48587
89600000000	48296
89700000000	48778
89800000000	48864
89900000000	48549
90000000000	48596
90100000000	47893
90200000000	48872
90300000000	48577
90400000000	48927
90500000000	48667
90600000000	49428
90700000000	48386
90800000000	49132
90900000000	48685
91000000000	49166
91100000000	48289
91200000000	48721
91300000000	49090
91400000000	48798
91500000000	48732
91600000000	48715
91700000000	48631
91800000000	48447
91900000000	48951
92000000000	48946
92100000000	48759
92200000000	49091
92300000000	48865
92400000000	48964
92500000000	48848
92600000000	48684
92700000000	48656
92800000000	49140
92900000000	48869
93000000000	48625
93100000000	49186
93200000000	48482
93300000000	49065
93400000000	48908
93500000000	49103
93600000000	48871
93700000000	48863
93800000000	48386
93900000000	48734
94000000000	48994
94100000000	48989
94200000000	48820
94300000000	48866
94400000000	48476
94500000000	49115
94600000000	48113
94700000000	48882
94800000000	49022
94900000000	48795
95000000000	49109
95100000000	49070
95200000000	48806
95300000000	48873
95400000000	48850
95500000000	48734
95600000000	48688
95700000000	48706
95800000000	48840
95900000000	48939
96000000000	48484
96100000000	48246
96200000000	48404
96300000000	48897
96400000000	48850
96500000000	49061
96600000000	48535
96700000000	48521
96800000000	48493
96900000000	48980
97000000000	48761
97100000000	48840
97200000000	48850
97300000000	48814
97400000000	48826
97500000000	48587
97600000000	48470
97700000000	48920
97800000000	48387
97900000000	49111
98000000000	48924
98100000000	48794
98200000000	48590
98300000000	48765
98400000000	48542
98500000000	48786
98600000000	48747
98700000000	48886
98800000000	48704
98900000000	48678
99000000000	48373
99100000000	49099
99200000000	48914
99300000000	48856
99400000000	49043
99500000000	49065
99600000000	48925
99700000000	48749
99800000000	48907
99900000000	48890
