"Time (ps)"	"Counts per bin"
0	9995
100000000	9855
200000000	9704
300000000	9661
400000000	9499
500000000	9718
600000000	9535
700000000	9495
800000000	9560
900000000	9503
1000000000	9647
1100000000	9615
1200000000	9456
1300000000	9530
1400000000	9477
1500000000	9764
1600000000	9543
1700000000	9376
1800000000	9537
1900000000	9408
2000000000	9447
2100000000	9394
2200000000	9567
2300000000	9353
2400000000	9530
2500000000	9534
2600000000	9564
2700000000	9382
2800000000	9716
2900000000	9515
3000000000	9403
3100000000	9504
3200000000	9602
3300000000	9444
3400000000	9611
3500000000	9541
3600000000	9560
3700000000	9469
3800000000	9330
3900000000	9457
4000000000	9624
4100000000	9555
4200000000	9588
4300000000	9508
4400000000	9503
4500000000	9673
4600000000	9451
4700000000	9682
4800000000	9470
4900000000	9489
5000000000	9369
5100000000	9558
5200000000	9551
5300000000	9532
5400000000	9580
5500000000	9444
5600000000	9576
5700000000	9403
5800000000	9567
5900000000	9605
6000000000	9478
6100000000	9493
6200000000	9555
6300000000	9570
6400000000	9578
6500000000	9422
6600000000	9322
6700000000	9603
6800000000	9487
6900000000	9633
7000000000	9603
7100000000	9494
7200000000	9576
7300000000	9547
7400000000	9659
7500000000	9829
7600000000	9675
7700000000	9602
7800000000	9596
7900000000	9508
8000000000	9710
8100000000	9561
8200000000	9418
8300000000	9480
8400000000	9537
8500000000	9612
8600000000	9591
8700000000	9703
8800000000	9535
8900000000	9466
9000000000	9556
9100000000	9585
9200000000	9690
9300000000	9481
9400000000	9635
9500000000	9621
9600000000	9351
9700000000	9500
9800000000	9599
9900000000	9774
10000000000	9717
10100000000	9591
10200000000	9534
10300000000	9402
10400000000	9655
10500000000	9705
10600000000	9595
10700000000	9667
10800000000	9805
10900000000	9750
11000000000	9689
11100000000	9634
11200000000	9593
11300000000	9558
11400000000	9422
11500000000	9592
11600000000	9748
11700000000	9599
11800000000	9575
11900000000	9714
12000000000	9579
12100000000	9586
12200000000	9625
12300000000	9569
12400000000	9520
12500000000	9569
12600000000	9616
12700000000	9781
12800000000	9584
12900000000	9560
13000000000	9530
13100000000	9461
13200000000	9734
13300000000	9540
13400000000	9540
13500000000	9371
13600000000	9494
13700000000	9583
13800000000	9487
13900000000	9616
14000000000	9424
14100000000	9370
14200000000	9679
14300000000	9514
14400000000	9593
14500000000	9558
14600000000	9317
14700000000	9696
14800000000	9644
14900000000	9497
15000000000	9650
15100000000	9551
15200000000	9438
15300000000	9569
15400000000	9595
15500000000	9468
15600000000	9554
15700000000	9450
15800000000	9639
15900000000	9430
16000000000	9411
16100000000	9624
16200000000	9639
16300000000	9603
16400000000	9461
16500000000	9522
16600000000	9458
16700000000	9508
16800000000	9478
16900000000	9531
17000000000	9477
17100000000	9621
17200000000	9591
17300000000	9574
17400000000	9737
17500000000	9671
17600000000	9594
17700000000	9607
17800000000	9497
17900000000	9712
18000000000	9624
18100000000	9590
18200000000	9623
18300000000	9616
18400000000	9406
18500000000	9455
18600000000	9397
18700000000	9563
18800000000	9582
18900000000	9634
19000000000	9577
19100000000	9638
19200000000	9477
19300000000	9541
19400000000	9682
19500000000	9639
19600000000	9692
19700000000	9493
19800000000	9522
19900000000	9730
20000000000	9745
20100000000	9463
20200000000	9616
20300000000	9699
20400000000	9595
20500000000	9539
20600000000	9506
20700000000	9603
20800000000	9581
20900000000	9732
21000000000	9615
21100000000	9563
21200000000	9557
21300000000	9492
21400000000	9563
21500000000	9445
21600000000	9675
21700000000	9692
21800000000	9752
21900000000	9431
22000000000	9761
22100000000	9607
22200000000	9363
22300000000	9674
22400000000	9654
22500000000	9480
22600000000	9765
22700000000	9801
22800000000	9415
22900000000	9564
23000000000	9577
23100000000	9734
23200000000	9582
23300000000	9501
23400000000	9504
23500000000	9654
23600000000	9667
23700000000	9606
23800000000	9507
23900000000	9601
24000000000	9801
24100000000	9521
24200000000	9605
24300000000	9552
24400000000	9654
24500000000	9733
24600000000	9257
24700000000	9512
24800000000	9486
24900000000	9764
25000000000	9766
25100000000	9679
25200000000	9606
25300000000	9741
25400000000	9636
25500000000	9762
25600000000	9683
25700000000	9803
25800000000	9921
25900000000	9926
26000000000	9921
26100000000	9820
26200000000	9814
26300000000	9891
26400000000	9766
26500000000	9845
26600000000	9942
26700000000	9696
26800000000	9869
26900000000	10011
27000000000	9901
27100000000	9749
27200000000	9931
27300000000	9886
27400000000	9986
27500000000	9905
27600000000	9781
27700000000	9810
27800000000	9843
27900000000	9798
28000000000	10032
28100000000	10121
28200000000	10173
28300000000	9902
28400000000	10140
28500000000	10059
28600000000	10002
28700000000	9989
28800000000	10022
28900000000	9967
29000000000	9954
29100000000	9940
29200000000	10015
29300000000	9919
29400000000	9972
29500000000	10012
29600000000	10120
29700000000	9921
29800000000	9946
29900000000	9979
30000000000	9821
30100000000	10087
30200000000	9940
30300000000	9852
30400000000	10053
30500000000	10071
30600000000	10028
30700000000	10079
30800000000	10003
30900000000	9985
31000000000	9978
31100000000	9920
31200000000	9883
31300000000	9994
31400000000	10016
31500000000	9921
31600000000	10198
31700000000	10048
31800000000	9909
31900000000	9909
32000000000	10039
32100000000	10051
32200000000	9972
32300000000	10273
32400000000	10035
32500000000	10065
32600000000	9826
32700000000	9975
32800000000	10022
32900000000	10009
33000000000	9992
33100000000	9811
33200000000	9821
33300000000	9942
33400000000	9868
33500000000	9940
33600000000	10138
33700000000	9958
33800000000	10082
33900000000	10215
34000000000	10162
34100000000	9951
34200000000	9995
34300000000	10010
34400000000	10136
34500000000	9971
34600000000	10068
34700000000	10125
34800000000	10012
34900000000	10027
35000000000	9903
35100000000	10073
35200000000	9968
35300000000	10088
35400000000	9960
35500000000	10154
35600000000	9876
35700000000	9973
35800000000	10099
35900000000	10073
36000000000	9888
36100000000	10145
36200000000	9890
36300000000	10028
36400000000	10066
36500000000	10001
36600000000	9923
36700000000	9934
36800000000	9970
36900000000	10033
37000000000	9782
37100000000	9938
37200000000	9954
37300000000	9972
37400000000	10079
37500000000	10030
37600000000	9952
37700000000	10092
37800000000	10016
37900000000	10042
38000000000	10406
38100000000	10139
38200000000	9882
38300000000	10103
38400000000	9977
38500000000	10114
38600000000	9990
38700000000	9972
38800000000	10100
38900000000	9960
39000000000	9930
39100000000	10008
39200000000	10055
39300000000	10133
39400000000	9963
39500000000	9935
39600000000	9783
39700000000	10026
39800000000	9999
39900000000	10018
40000000000	9947
40100000000	10158
40200000000	10046
40300000000	9945
40400000000	9803
40500000000	10008
40600000000	9971
40700000000	9898
40800000000	9876
40900000000	10156
41000000000	10020
41100000000	9932
41200000000	10016
41300000000	9963
41400000000	10025
41500000000	10041
41600000000	10042
41700000000	9830
41800000000	10250
41900000000	9925
42000000000	9932
42100000000	10066
42200000000	9930
42300000000	9899
42400000000	9959
42500000000	9987
42600000000	10000
42700000000	9942
42800000000	9890
42900000000	10117
43000000000	10201
43100000000	9956
43200000000	10057
43300000000	10107
43400000000	10106
43500000000	9938
43600000000	9911
43700000000	10005
43800000000	10081
43900000000	10036
44000000000	9980
44100000000	10007
44200000000	10178
44300000000	10088
44400000000	10070
44500000000	9921
44600000000	10174
44700000000	10070
44800000000	9965
44900000000	9894
45000000000	10132
45100000000	10067
45200000000	10224
45300000000	10098
45400000000	10009
45500000000	10102
45600000000	10160
45700000000	9974
45800000000	10040
45900000000	10099
46000000000	10007
46100000000	10062
46200000000	10052
46300000000	10109
46400000000	9976
46500000000	10044
46600000000	10156
46700000000	10365
46800000000	10057
46900000000	9991
47000000000	9960
47100000000	9954
47200000000	10182
47300000000	9950
47400000000	10027
47500000000	10235
47600000000	10004
47700000000	10086
47800000000	10140
47900000000	9979
48000000000	9904
48100000000	10133
48200000000	10007
48300000000	10102
48400000000	9876
48500000000	9979
48600000000	9993
48700000000	10018
48800000000	10196
48900000000	10137
49000000000	10171
49100000000	9935
49200000000	9866
49300000000	9933
49400000000	10067
49500000000	10252
49600000000	9958
49700000000	10248
49800000000	9947
49900000000	10135
50000000000	9991
50100000000	9874
50200000000	9654
50300000000	9694
50400000000	9486
50500000000	9746
50600000000	9498
50700000000	9519
50800000000	9514
50900000000	9504
51000000000	9660
51100000000	9628
51200000000	9441
51300000000	9515
51400000000	9481
51500000000	9773
51600000000	9529
51700000000	9369
51800000000	9489
51900000000	9439
52000000000	9439
52100000000	9363
52200000000	9543
52300000000	9387
52400000000	9499
52500000000	9564
52600000000	9538
52700000000	9421
52800000000	9644
52900000000	9551
53000000000	9380
53100000000	9538
53200000000	9544
53300000000	9470
53400000000	9591
53500000000	9558
53600000000	9583
53700000000	9462
53800000000	9317
53900000000	9450
54000000000	9597
54100000000	9554
54200000000	9558
54300000000	9525
54400000000	9515
54500000000	9644
54600000000	9477
54700000000	9669
54800000000	9460
54900000000	9512
55000000000	9350
55100000000	9555
55200000000	9520
55300000000	9497
55400000000	9602
55500000000	9467
55600000000	9565
55700000000	9353
55800000000	9586
55900000000	9588
56000000000	9504
56100000000	9481
56200000000	9564
56300000000	9528
56400000000	9565
56500000000	9426
56600000000	9297
56700000000	9608
56800000000	9490
56900000000	9662
57000000000	9559
57100000000	9519
57200000000	9570
57300000000	9534
57400000000	9680
57500000000	9757
57600000000	9705
57700000000	9580
57800000000	9619
57900000000	9467
58000000000	9751
58100000000	9550
58200000000	9388
58300000000	9490
58400000000	9521
58500000000	9620
58600000000	9576
58700000000	9684
58800000000	9578
58900000000	9435
59000000000	9547
59100000000	9584
59200000000	9699
59300000000	9459
59400000000	9621
59500000000	9637
59600000000	9317
59700000000	9492
59800000000	9610
59900000000	9760
60000000000	9737
60100000000	9575
60200000000	9552
60300000000	9363
60400000000	9607
60500000000	9746
60600000000	9607
60700000000	9635
60800000000	9791
60900000000	9761
61000000000	9692
61100000000	9607
61200000000	9640
61300000000	9493
61400000000	9479
61500000000	9571
61600000000	9732
61700000000	9582
61800000000	9591
61900000000	9671
62000000000	9593
62100000000	9600
62200000000	9632
62300000000	9511
62400000000	9564
62500000000	9546
62600000000	9637
62700000000	9760
62800000000	9584
62900000000	9544
63000000000	9510
63100000000	9457
63200000000	9726
63300000000	9557
63400000000	9507
63500000000	9392
63600000000	9480
63700000000	9576
63800000000	9490
63900000000	9606
64000000000	9414
64100000000	9351
64200000000	9690
64300000000	9525
64400000000	9583
64500000000	9549
64600000000	9326
64700000000	9667
64800000000	9666
64900000000	9451
65000000000	9685
65100000000	9558
65200000000	9399
65300000000	9588
65400000000	9597
65500000000	9465
65600000000	9533
65700000000	9449
65800000000	9630
65900000000	9456
66000000000	9364
66100000000	9601
66200000000	9645
66300000000	9619
66400000000	9448
66500000000	9506
66600000000	9474
66700000000	9484
66800000000	9495
66900000000	9494
67000000000	9500
67100000000	9587
67200000000	9642
67300000000	9530
67400000000	9720
67500000000	9683
67600000000	9582
67700000000	9617
67800000000	9467
67900000000	9741
68000000000	9575
68100000000	9627
68200000000	9588
68300000000	9625
68400000000	9366
68500000000	9456
68600000000	9394
68700000000	9572
68800000000	9591
68900000000	9605
69000000000	9596
69100000000	9606
69200000000	9488
69300000000	9540
69400000000	9676
69500000000	9628
69600000000	9685
69700000000	9478
69800000000	9518
69900000000	9714
70000000000	9772
70100000000	9455
70200000000	9562
70300000000	9747
70400000000	9583
70500000000	9544
70600000000	9479
70700000000	9607
70800000000	9562
70900000000	9748
71000000000	9586
71100000000	9569
71200000000	9587
71300000000	9439
71400000000	9595
71500000000	9425
71600000000	9671
71700000000	9686
71800000000	9740
71900000000	9458
72000000000	9736
72100000000	9630
72200000000	9356
72300000000	9643
72400000000	9629
72500000000	9508
72600000000	9783
72700000000	9773
72800000000	9426
72900000000	9524
73000000000	9594
73100000000	9686
73200000000	9621
73300000000	9512
73400000000	9513
73500000000	9616
73600000000	9680
73700000000	9571
73800000000	9530
73900000000	9570
74000000000	9791
74100000000	9541
74200000000	9586
74300000000	9529
74400000000	9658
74500000000	9749
74600000000	9292
74700000000	9486
74800000000	9459
74900000000	9756
75000000000	9767
75100000000	9696
75200000000	9635
75300000000	9685
75400000000	9638
75500000000	9758
75600000000	9690
75700000000	9789
75800000000	9884
75900000000	9946
76000000000	9931
76100000000	9813
76200000000	9786
76300000000	9877
76400000000	9780
76500000000	9863
76600000000	9908
76700000000	9704
76800000000	9879
76900000000	9977
77000000000	9926
77100000000	9760
77200000000	9856
77300000000	9919
77400000000	9961
77500000000	9921
77600000000	9764
77700000000	9805
77800000000	9864
77900000000	9746
78000000000	10074
78100000000	10095
78200000000	10142
78300000000	9928
78400000000	10101
78500000000	10071
78600000000	9995
78700000000	9977
78800000000	10053
78900000000	9932
79000000000	9969
79100000000	9925
79200000000	10021
79300000000	9906
79400000000	9955
79500000000	10027
79600000000	10091
79700000000	9914
79800000000	9938
79900000000	9985
80000000000	9859
80100000000	10065
80200000000	9902
80300000000	9876
80400000000	10034
80500000000	10042
80600000000	10054
80700000000	10080
80800000000	9962
80900000000	10019
81000000000	9931
81100000000	9934
81200000000	9885
81300000000	9999
81400000000	9999
81500000000	9931
81600000000	10171
81700000000	10047
81800000000	9948
81900000000	9875
82000000000	10017
82100000000	10049
82200000000	9978
82300000000	10232
82400000000	10057
82500000000	10052
82600000000	9824
82700000000	9968
82800000000	10007
82900000000	10015
83000000000	10020
83100000000	9789
83200000000	9807
83300000000	9948
83400000000	9841
83500000000	9964
83600000000	10096
83700000000	9958
83800000000	10090
83900000000	10218
84000000000	10135
84100000000	9956
84200000000	10008
84300000000	10010
84400000000	10128
84500000000	9951
84600000000	10081
84700000000	10103
84800000000	9996
84900000000	10011
85000000000	9909
85100000000	10056
85200000000	9993
85300000000	10060
85400000000	9959
85500000000	10151
85600000000	9867
85700000000	10004
85800000000	10054
85900000000	10076
86000000000	9885
86100000000	10137
86200000000	9897
86300000000	10041
86400000000	10012
86500000000	10011
86600000000	9932
86700000000	9901
86800000000	9971
86900000000	9998
87000000000	9830
87100000000	9928
87200000000	9938
87300000000	9967
87400000000	10067
87500000000	10020
87600000000	9937
87700000000	10111
87800000000	9996
87900000000	10058
88000000000	10376
88100000000	10118
88200000000	9883
88300000000	10097
88400000000	9963
88500000000	10141
88600000000	9958
88700000000	9994
88800000000	10075
88900000000	9966
89000000000	9912
89100000000	9992
89200000000	10089
89300000000	10097
89400000000	9953
89500000000	9933
89600000000	9801
89700000000	10002
89800000000	10006
89900000000	9966
90000000000	9978
90100000000	10160
90200000000	10029
90300000000	9946
90400000000	9796
90500000000	9994
90600000000	9978
90700000000	9869
90800000000	9870
90900000000	10140
91000000000	10054
91100000000	9902
91200000000	9993
91300000000	10001
91400000000	10008
91500000000	10021
91600000000	10018
91700000000	9850
91800000000	10196
91900000000	9964
92000000000	9897
92100000000	10055
92200000000	9940
92300000000	9920
92400000000	9933
92500000000	9976
92600000000	9978
92700000000	9975
92800000000	9860
92900000000	10143
93000000000	10177
93100000000	9980
93200000000	10017
93300000000	10104
93400000000	10074
93500000000	9953
93600000000	9917
93700000000	9978
93800000000	10099
93900000000	10033
94000000000	9964
94100000000	10012
94200000000	10193
94300000000	10028
94400000000	10095
94500000000	9936
94600000000	10134
94700000000	10094
94800000000	9942
94900000000	9876
95000000000	10139
95100000000	10040
95200000000	10249
95300000000	10095
95400000000	9970
95500000000	10120
95600000000	10157
95700000000	9977
95800000000	10001
95900000000	10132
96000000000	10013
96100000000	10039
96200000000	10031
96300000000	10100
96400000000	9976
96500000000	10037
96600000000	10161
96700000000	10354
96800000000	10054
96900000000	10001
97000000000	9967
97100000000	9938
97200000000	10181
97300000000	9962
97400000000	9990
97500000000	10238
97600000000	9998
97700000000	10064
97800000000	10165
97900000000	9940
98000000000	9927
98100000000	10152
98200000000	9976
98300000000	10095
98400000000	9833
98500000000	10006
98600000000	9988
98700000000	10042
98800000000	10157
98900000000	10167
99000000000	10138
99100000000	9972
99200000000	9841
99300000000	9934
99400000000	10024
99500000000	10274
99600000000	9954
99700000000	10238
99800000000	9945
99900000000	10129
