"Time (ps)"	"Counts per bin"
0	89096
50000000	89131
100000000	89296
150000000	88907
200000000	89539
250000000	89028
300000000	89297
350000000	89233
400000000	89845
450000000	89638
500000000	89650
550000000	89108
600000000	89552
650000000	89513
700000000	89139
750000000	89626
800000000	89365
850000000	88656
900000000	89841
950000000	89505
1000000000	89076
1050000000	89480
1100000000	89530
1150000000	89609
1200000000	89109
1250000000	89574
1300000000	89716
1350000000	90490
1400000000	89999
1450000000	89173
1500000000	89693
1550000000	89204
1600000000	89339
1650000000	89281
1700000000	89327
1750000000	89682
1800000000	89973
1850000000	89767
1900000000	89388
1950000000	89639
2000000000	90416
2050000000	89299
2100000000	89884
2150000000	89425
2200000000	89006
2250000000	89709
2300000000	89333
2350000000	89980
2400000000	90152
2450000000	89651
2500000000	89400
2550000000	88965
2600000000	89562
2650000000	89894
2700000000	89392
2750000000	89335
2800000000	89083
2850000000	88880
2900000000	89207
2950000000	89612
3000000000	89165
3050000000	89151
3100000000	89273
3150000000	89667
3200000000	89254
3250000000	89524
3300000000	89359
3350000000	89069
3400000000	89533
3450000000	89187
3500000000	89504
3550000000	89434
3600000000	89452
3650000000	89327
3700000000	89325
3750000000	89159
3800000000	88544
3850000000	88959
3900000000	88659
3950000000	89443
4000000000	88894
4050000000	88872
4100000000	88602
4150000000	88997
4200000000	88097
4250000000	89071
4300000000	89190
4350000000	88485
4400000000	88960
4450000000	88601
4500000000	88868
4550000000	89105
4600000000	88805
4650000000	88700
4700000000	88902
4750000000	88704
4800000000	89050
4850000000	89026
4900000000	88709
4950000000	88672
5000000000	89100
5050000000	88532
5100000000	88866
5150000000	88729
5200000000	88742
5250000000	88812
5300000000	88783
5350000000	88468
5400000000	88663
5450000000	88634
5500000000	89154
5550000000	88540
5600000000	88704
5650000000	88406
5700000000	89089
5750000000	89003
5800000000	88940
5850000000	89278
5900000000	88635
5950000000	88900
6000000000	88743
6050000000	88249
6100000000	88602
6150000000	89187
6200000000	88690
6250000000	88728
6300000000	88649
6350000000	89297
6400000000	88768
6450000000	89189
6500000000	88525
6550000000	88968
6600000000	89089
6650000000	89186
6700000000	88587
6750000000	88936
6800000000	88642
6850000000	89016
6900000000	89153
6950000000	89164
7000000000	89203
7050000000	89198
7100000000	89078
7150000000	89393
7200000000	89274
7250000000	89013
7300000000	89443
7350000000	89286
7400000000	89513
7450000000	89403
7500000000	89010
7550000000	89490
7600000000	88868
7650000000	89483
7700000000	89413
7750000000	89585
7800000000	89841
7850000000	89156
7900000000	89799
7950000000	89408
8000000000	89407
8050000000	89498
8100000000	88718
8150000000	89564
8200000000	89447
8250000000	90263
8300000000	89260
8350000000	89586
8400000000	89481
8450000000	89890
8500000000	89107
8550000000	90334
8600000000	89414
8650000000	89879
8700000000	89915
8750000000	89919
8800000000	90015
8850000000	89424
8900000000	89394
8950000000	90100
9000000000	89601
9050000000	89787
9100000000	90248
9150000000	89638
9200000000	89534
9250000000	88926
9300000000	88871
9350000000	89541
9400000000	89523
9450000000	89209
9500000000	89132
9550000000	89144
9600000000	88968
9650000000	89040
9700000000	89741
9750000000	89524
9800000000	88473
9850000000	89573
9900000000	89785
9950000000	89636
10000000000	89798
10050000000	89399
10100000000	89127
10150000000	89595
10200000000	89828
10250000000	89719
10300000000	89248
10350000000	89058
10400000000	89322
10450000000	89242
10500000000	89393
10550000000	89408
10600000000	89660
10650000000	89561
10700000000	89648
10750000000	89315
10800000000	89000
10850000000	88823
10900000000	89241
10950000000	89084
11000000000	88865
11050000000	89407
11100000000	88896
11150000000	89422
11200000000	89222
11250000000	89338
11300000000	89345
11350000000	89505
11400000000	88887
11450000000	88977
11500000000	88820
11550000000	89250
11600000000	89247
11650000000	88915
11700000000	88854
11750000000	88910
11800000000	88785
11850000000	88758
11900000000	88565
11950000000	88815
12000000000	89471
12050000000	89614
12100000000	88770
12150000000	89044
12200000000	88408
12250000000	89250
12300000000	89231
12350000000	88848
12400000000	88848
12450000000	88434
12500000000	88645
12550000000	88505
12600000000	88715
12650000000	88610
12700000000	88581
12750000000	88979
12800000000	89340
12850000000	88859
12900000000	89014
12950000000	88606
13000000000	88630
13050000000	89404
13100000000	88957
13150000000	88240
13200000000	89095
13250000000	89036
13300000000	88648
13350000000	88973
13400000000	88423
13450000000	89217
13500000000	89056
13550000000	88578
13600000000	89096
13650000000	88657
13700000000	88782
13750000000	88678
13800000000	88724
13850000000	89262
13900000000	88991
13950000000	88880
14000000000	89248
14050000000	88696
14100000000	89160
14150000000	88884
14200000000	88963
14250000000	88706
14300000000	89157
14350000000	89050
14400000000	88968
14450000000	89291
14500000000	89079
14550000000	89072
14600000000	89460
14650000000	89468
14700000000	89486
14750000000	89101
14800000000	88904
14850000000	89133
14900000000	89352
14950000000	89465
15000000000	89006
15050000000	89356
15100000000	89281
15150000000	89915
15200000000	89669
15250000000	89198
15300000000	89062
15350000000	89475
15400000000	89307
15450000000	89717
15500000000	89782
15550000000	89696
15600000000	88884
15650000000	89572
15700000000	89344
15750000000	89608
15800000000	90231
15850000000	89771
15900000000	89602
15950000000	89881
16000000000	89684
16050000000	90100
16100000000	89483
16150000000	89647
16200000000	89787
16250000000	89811
16300000000	89730
16350000000	89649
16400000000	89973
16450000000	89491
16500000000	89615
16550000000	90057
16600000000	89885
16650000000	89748
16700000000	89428
16750000000	89960
16800000000	89627
16850000000	89313
16900000000	89138
16950000000	89974
17000000000	89303
17050000000	89147
17100000000	89206
17150000000	89697
17200000000	89805
17250000000	90068
17300000000	89155
17350000000	89274
17400000000	88758
17450000000	88794
17500000000	89493
17550000000	88682
17600000000	89090
17650000000	89379
17700000000	89526
17750000000	89308
17800000000	89107
17850000000	88752
17900000000	89123
17950000000	89235
18000000000	89729
18050000000	88706
18100000000	89636
18150000000	88580
18200000000	89907
18250000000	89261
18300000000	89064
18350000000	89071
18400000000	88821
18450000000	88784
18500000000	89007
18550000000	88484
18600000000	88597
18650000000	88736
18700000000	88963
18750000000	88933
18800000000	88601
18850000000	89159
18900000000	89144
18950000000	88649
19000000000	88565
19050000000	89402
19100000000	88627
19150000000	88460
19200000000	88509
19250000000	88820
19300000000	88766
19350000000	88307
19400000000	88539
19450000000	88439
19500000000	88737
19550000000	88680
19600000000	88929
19650000000	89293
19700000000	88296
19750000000	88602
19800000000	88770
19850000000	88446
19900000000	88998
19950000000	87995
20000000000	88482
20050000000	88568
20100000000	88968
20150000000	88289
20200000000	89073
20250000000	88898
20300000000	88835
20350000000	88743
20400000000	88596
20450000000	89291
20500000000	88208
20550000000	89160
20600000000	88947
20650000000	88594
20700000000	89054
20750000000	89089
20800000000	89159
20850000000	89360
20900000000	88892
20950000000	89210
21000000000	89193
21050000000	89486
21100000000	88888
21150000000	88997
21200000000	89189
21250000000	89228
21300000000	89030
21350000000	89166
21400000000	89004
21450000000	89563
21500000000	88984
21550000000	88858
21600000000	89187
21650000000	89112
21700000000	89583
21750000000	89485
21800000000	89094
21850000000	89339
21900000000	89303
21950000000	89261
22000000000	89562
22050000000	89346
22100000000	89333
22150000000	89331
22200000000	89159
22250000000	89045
22300000000	89161
22350000000	89335
22400000000	88836
22450000000	88905
22500000000	89772
22550000000	89709
22600000000	89406
22650000000	89461
22700000000	89072
22750000000	89822
22800000000	89698
22850000000	89966
22900000000	89373
22950000000	89220
23000000000	89483
23050000000	89456
23100000000	89513
23150000000	89493
23200000000	90048
23250000000	89229
23300000000	89692
23350000000	88952
23400000000	89533
23450000000	90037
23500000000	89815
23550000000	89205
23600000000	89669
23650000000	89660
23700000000	89488
23750000000	89057
23800000000	88955
23850000000	89177
23900000000	89781
23950000000	89266
24000000000	89590
24050000000	89213
24100000000	89594
24150000000	89579
24200000000	89226
24250000000	88981
24300000000	89467
24350000000	89829
24400000000	89196
24450000000	89301
24500000000	89089
24550000000	89165
24600000000	89370
24650000000	88999
24700000000	89210
24750000000	89050
24800000000	88940
24850000000	89432
24900000000	88857
24950000000	89514
25000000000	89140
25050000000	88883
25100000000	89245
25150000000	88879
25200000000	89058
25250000000	88504
25300000000	88477
25350000000	89212
25400000000	88837
25450000000	89515
25500000000	88708
25550000000	88585
25600000000	89032
25650000000	88498
25700000000	88789
25750000000	88533
25800000000	88771
25850000000	88791
25900000000	88570
25950000000	89081
26000000000	88709
26050000000	87977
26100000000	88794
26150000000	88485
26200000000	89364
26250000000	88408
26300000000	88950
26350000000	88917
26400000000	88718
26450000000	88858
26500000000	88566
26550000000	88306
26600000000	88783
26650000000	88917
26700000000	88767
26750000000	89266
26800000000	88918
26850000000	88205
26900000000	88740
26950000000	89029
27000000000	88723
27050000000	88095
27100000000	88229
27150000000	88991
27200000000	88500
27250000000	88546
27300000000	89124
27350000000	88959
27400000000	88941
27450000000	89011
27500000000	88698
27550000000	88771
27600000000	88291
27650000000	88609
27700000000	88810
27750000000	89227
27800000000	88742
27850000000	88890
27900000000	88660
27950000000	88476
28000000000	88844
28050000000	88707
28100000000	88780
28150000000	89164
28200000000	88926
28250000000	89455
28300000000	89092
28350000000	88555
28400000000	88530
28450000000	88831
28500000000	89216
28550000000	89294
28600000000	89105
28650000000	88354
28700000000	88779
28750000000	89285
28800000000	89047
28850000000	89248
28900000000	89169
28950000000	89386
29000000000	89699
29050000000	89119
29100000000	89499
29150000000	89074
29200000000	89474
29250000000	88957
29300000000	89005
29350000000	89538
29400000000	89233
29450000000	88837
29500000000	89855
29550000000	89117
29600000000	89188
29650000000	89256
29700000000	89247
29750000000	89181
29800000000	89206
29850000000	89867
29900000000	88758
29950000000	89617
30000000000	89416
30050000000	89211
30100000000	89488
30150000000	89928
30200000000	89584
30250000000	89454
30300000000	89764
30350000000	89055
30400000000	89192
30450000000	89796
30500000000	89808
30550000000	89421
30600000000	89417
30650000000	89365
30700000000	89482
30750000000	88987
30800000000	89441
30850000000	89218
30900000000	89449
30950000000	89488
31000000000	89459
31050000000	89312
31100000000	89466
31150000000	89565
31200000000	89457
31250000000	89168
31300000000	89214
31350000000	88785
31400000000	89326
31450000000	89316
31500000000	88924
31550000000	89313
31600000000	89207
31650000000	88852
31700000000	89057
31750000000	89726
31800000000	89090
31850000000	89059
31900000000	88873
31950000000	89037
32000000000	89214
32050000000	88901
32100000000	89095
32150000000	89136
32200000000	89146
32250000000	89247
32300000000	88568
32350000000	89071
32400000000	89287
32450000000	88578
32500000000	88958
32550000000	88512
32600000000	88892
32650000000	88685
32700000000	88500
32750000000	89097
32800000000	88851
32850000000	88768
32900000000	88565
32950000000	88099
33000000000	88438
33050000000	88772
33100000000	88575
33150000000	88286
33200000000	88506
33250000000	88495
33300000000	88789
33350000000	88523
33400000000	88836
33450000000	89286
33500000000	88496
33550000000	88530
33600000000	88648
33650000000	88644
33700000000	88757
33750000000	88358
33800000000	89122
33850000000	88608
33900000000	88852
33950000000	88448
34000000000	88768
34050000000	88726
34100000000	88497
34150000000	88533
34200000000	88347
34250000000	88827
34300000000	88839
34350000000	88941
34400000000	88792
34450000000	87996
34500000000	88644
34550000000	88559
34600000000	88851
34650000000	88961
34700000000	88518
34750000000	88485
34800000000	89009
34850000000	88943
34900000000	88467
34950000000	88481
35000000000	88729
35050000000	89181
35100000000	88903
35150000000	89117
35200000000	88367
35250000000	89339
35300000000	89601
35350000000	88867
35400000000	88839
35450000000	88761
35500000000	88357
35550000000	89106
35600000000	88960
35650000000	89102
35700000000	88543
35750000000	88660
35800000000	88850
35850000000	88878
35900000000	89156
35950000000	89054
36000000000	89427
36050000000	89467
36100000000	89054
36150000000	89016
36200000000	89068
36250000000	88910
36300000000	89632
36350000000	89085
36400000000	88907
36450000000	89787
36500000000	89513
36550000000	89157
36600000000	89472
36650000000	89804
36700000000	89298
36750000000	89012
36800000000	89263
36850000000	89413
36900000000	89395
36950000000	89400
37000000000	89593
37050000000	89382
37100000000	89378
37150000000	89048
37200000000	89698
37250000000	88960
37300000000	89049
37350000000	89064
37400000000	90033
37450000000	89094
37500000000	88967
37550000000	89283
37600000000	89234
37650000000	89693
37700000000	89054
37750000000	89268
37800000000	89845
37850000000	89718
37900000000	89528
37950000000	89462
38000000000	89325
38050000000	88837
38100000000	89280
38150000000	89534
38200000000	89478
38250000000	89429
38300000000	89576
38350000000	89850
38400000000	89489
38450000000	88889
38500000000	89745
38550000000	89013
38600000000	89561
38650000000	89313
38700000000	89311
38750000000	89339
38800000000	89062
38850000000	89395
38900000000	89551
38950000000	88813
39000000000	88658
39050000000	89070
39100000000	89168
39150000000	89366
39200000000	89217
39250000000	88972
39300000000	88737
39350000000	88986
39400000000	89380
39450000000	89120
39500000000	89209
39550000000	88626
39600000000	89037
39650000000	88919
39700000000	89075
39750000000	88738
39800000000	89126
39850000000	89071
39900000000	88902
39950000000	88793
40000000000	88855
40050000000	88607
40100000000	88621
40150000000	89309
40200000000	88394
40250000000	88379
40300000000	88936
40350000000	88974
40400000000	88809
40450000000	88181
40500000000	88874
40550000000	88861
40600000000	88403
40650000000	88783
40700000000	88149
40750000000	89158
40800000000	88516
40850000000	88736
40900000000	88963
40950000000	88327
41000000000	88875
41050000000	88535
41100000000	88283
41150000000	88239
41200000000	88767
41250000000	88980
41300000000	88807
41350000000	88715
41400000000	88471
41450000000	89090
41500000000	88828
41550000000	88969
41600000000	89265
41650000000	88706
41700000000	88734
41750000000	88116
41800000000	88585
41850000000	88815
41900000000	88598
41950000000	89087
42000000000	88943
42050000000	88294
42100000000	89031
42150000000	88572
42200000000	88840
42250000000	88739
42300000000	88473
42350000000	89138
42400000000	89100
42450000000	88682
42500000000	89165
42550000000	89131
42600000000	89195
42650000000	88996
42700000000	88592
42750000000	89467
42800000000	88793
42850000000	89000
42900000000	88935
42950000000	89321
43000000000	88565
43050000000	89210
43100000000	89202
43150000000	88790
43200000000	89263
43250000000	88787
43300000000	88804
43350000000	89111
43400000000	89102
43450000000	89212
43500000000	89479
43550000000	89217
43600000000	89413
43650000000	89248
43700000000	89143
43750000000	89272
43800000000	89271
43850000000	89605
43900000000	89878
43950000000	89297
44000000000	89475
44050000000	89163
44100000000	89652
44150000000	89165
44200000000	89044
44250000000	89300
44300000000	89203
44350000000	88999
44400000000	89931
44450000000	89191
44500000000	89483
44550000000	89680
44600000000	89023
44650000000	89613
44700000000	89458
44750000000	89424
44800000000	89814
44850000000	89382
44900000000	89485
44950000000	89407
45000000000	89053
45050000000	89180
45100000000	88787
45150000000	89125
45200000000	89293
45250000000	89499
45300000000	90051
45350000000	89590
45400000000	89549
45450000000	88867
45500000000	89152
45550000000	89290
45600000000	89308
45650000000	89591
45700000000	88958
45750000000	89335
45800000000	89266
45850000000	89206
45900000000	89504
45950000000	89113
46000000000	89053
46050000000	89285
46100000000	89101
46150000000	88837
46200000000	88705
46250000000	89135
46300000000	88806
46350000000	88516
46400000000	88929
46450000000	88935
46500000000	89016
46550000000	88747
46600000000	89095
46650000000	88646
46700000000	89108
46750000000	87944
46800000000	88666
46850000000	88807
46900000000	88339
46950000000	89188
47000000000	88490
47050000000	89091
47100000000	88802
47150000000	88742
47200000000	89016
47250000000	89163
47300000000	88688
47350000000	88634
47400000000	88602
47450000000	88319
47500000000	88653
47550000000	89104
47600000000	88678
47650000000	88956
47700000000	88135
47750000000	88661
47800000000	88842
47850000000	88739
47900000000	88163
47950000000	88446
48000000000	88603
48050000000	88508
48100000000	88663
48150000000	88473
48200000000	88428
48250000000	89255
48300000000	88122
48350000000	88359
48400000000	88724
48450000000	88739
48500000000	88513
48550000000	88675
48600000000	88812
48650000000	88303
48700000000	88661
48750000000	88378
48800000000	88139
48850000000	88680
48900000000	88140
48950000000	88652
49000000000	88265
49050000000	88435
49100000000	88807
49150000000	89297
49200000000	88892
49250000000	88619
49300000000	88920
49350000000	89356
49400000000	89003
49450000000	88499
49500000000	88320
49550000000	89043
49600000000	88340
49650000000	88650
49700000000	89033
49750000000	88863
49800000000	89165
49850000000	89214
49900000000	89308
49950000000	89143
50000000000	89053
50050000000	89035
50100000000	89376
50150000000	88748
50200000000	89617
50250000000	89011
50300000000	89239
50350000000	89300
50400000000	89799
50450000000	89541
50500000000	89589
50550000000	89119
50600000000	89497
50650000000	89564
50700000000	89150
50750000000	89572
50800000000	89404
50850000000	88527
50900000000	89809
50950000000	89612
51000000000	88877
51050000000	89562
51100000000	89542
51150000000	89484
51200000000	89220
51250000000	89388
51300000000	89754
51350000000	90239
51400000000	90226
51450000000	89169
51500000000	89682
51550000000	89204
51600000000	89171
51650000000	89395
51700000000	89276
51750000000	89623
51800000000	89963
51850000000	89664
51900000000	89460
51950000000	89585
52000000000	90212
52050000000	89471
52100000000	89852
52150000000	89333
52200000000	89047
52250000000	89730
52300000000	89245
52350000000	89991
52400000000	90062
52450000000	89605
52500000000	89477
52550000000	88877
52600000000	89422
52650000000	89998
52700000000	89378
52750000000	89377
52800000000	89009
52850000000	88892
52900000000	89202
52950000000	89553
53000000000	89145
53050000000	89049
53100000000	89374
53150000000	89621
53200000000	89412
53250000000	89268
53300000000	89386
53350000000	89043
53400000000	89399
53450000000	89385
53500000000	89316
53550000000	89512
53600000000	89514
53650000000	89162
53700000000	89412
53750000000	89129
53800000000	88589
53850000000	88828
53900000000	88631
53950000000	89409
54000000000	88762
54050000000	89036
54100000000	88528
54150000000	88939
54200000000	88066
54250000000	89056
54300000000	89157
54350000000	88530
54400000000	88954
54450000000	88462
54500000000	88980
54550000000	89051
54600000000	88710
54650000000	88760
54700000000	88824
54750000000	88790
54800000000	88893
54850000000	88923
54900000000	88881
54950000000	88550
55000000000	89169
55050000000	88595
55100000000	88748
55150000000	88642
55200000000	88799
55250000000	88747
55300000000	88761
55350000000	88431
55400000000	88667
55450000000	88455
55500000000	89243
55550000000	88488
55600000000	88706
55650000000	88548
55700000000	88965
55750000000	88860
55800000000	89065
55850000000	89304
55900000000	88535
55950000000	88874
56000000000	88678
56050000000	88309
56100000000	88605
56150000000	89104
56200000000	88671
56250000000	88798
56300000000	88557
56350000000	89300
56400000000	88696
56450000000	89143
56500000000	88618
56550000000	88918
56600000000	89100
56650000000	89029
56700000000	88731
56750000000	88880
56800000000	88554
56850000000	89063
56900000000	89131
56950000000	89160
57000000000	89043
57050000000	89206
57100000000	89090
57150000000	89280
57200000000	89382
57250000000	89025
57300000000	89431
57350000000	89084
57400000000	89560
57450000000	89427
57500000000	89109
57550000000	89259
57600000000	89012
57650000000	89331
57700000000	89553
57750000000	89331
57800000000	89845
57850000000	89256
57900000000	89858
57950000000	89233
58000000000	89400
58050000000	89564
58100000000	88712
58150000000	89405
58200000000	89391
58250000000	90196
58300000000	89313
58350000000	89533
58400000000	89464
58450000000	89887
58500000000	89067
58550000000	90209
58600000000	89594
58650000000	89878
58700000000	89829
58750000000	89832
58800000000	89919
58850000000	89499
58900000000	89395
58950000000	90126
59000000000	89533
59050000000	89797
59100000000	90223
59150000000	89575
59200000000	89508
59250000000	88898
59300000000	88850
59350000000	89394
59400000000	89541
59450000000	89294
59500000000	89144
59550000000	89031
59600000000	88893
59650000000	89190
59700000000	89677
59750000000	89515
59800000000	88424
59850000000	89583
59900000000	89615
59950000000	89756
60000000000	89720
60050000000	89415
60100000000	89108
60150000000	89423
60200000000	89903
60250000000	89750
60300000000	89307
60350000000	88976
60400000000	89241
60450000000	89177
60500000000	89499
60550000000	89356
60600000000	89608
60650000000	89574
60700000000	89581
60750000000	89231
60800000000	89078
60850000000	88758
60900000000	89271
60950000000	89080
61000000000	88953
61050000000	89229
61100000000	88895
61150000000	89524
61200000000	89235
61250000000	89256
61300000000	89214
61350000000	89403
61400000000	89004
61450000000	88960
61500000000	88868
61550000000	89149
61600000000	89281
61650000000	88820
61700000000	88770
61750000000	88954
61800000000	88749
61850000000	88871
61900000000	88426
61950000000	88950
62000000000	89295
62050000000	89567
62100000000	88674
62150000000	89117
62200000000	88399
62250000000	89259
62300000000	89232
62350000000	88805
62400000000	88826
62450000000	88434
62500000000	88527
62550000000	88547
62600000000	88838
62650000000	88483
62700000000	88644
62750000000	88922
62800000000	89287
62850000000	88936
62900000000	88941
62950000000	88440
63000000000	88694
63050000000	89462
63100000000	88955
63150000000	88243
63200000000	88991
63250000000	89025
63300000000	88518
63350000000	88963
63400000000	88354
63450000000	89275
63500000000	88905
63550000000	88559
63600000000	89106
63650000000	88692
63700000000	88840
63750000000	88585
63800000000	88659
63850000000	89166
63900000000	88971
63950000000	89039
64000000000	89228
64050000000	88500
64100000000	89238
64150000000	88841
64200000000	89007
64250000000	88685
64300000000	89086
64350000000	89053
64400000000	88891
64450000000	89220
64500000000	89221
64550000000	88971
64600000000	89522
64650000000	89420
64700000000	89402
64750000000	89123
64800000000	88956
64850000000	88866
64900000000	89503
64950000000	89360
65000000000	88991
65050000000	89251
65100000000	89283
65150000000	89987
65200000000	89631
65250000000	89173
65300000000	89061
65350000000	89420
65400000000	89328
65450000000	89786
65500000000	89605
65550000000	89772
65600000000	88947
65650000000	89524
65700000000	89257
65750000000	89590
65800000000	90049
65850000000	89987
65900000000	89518
65950000000	89620
66000000000	89864
66050000000	90024
66100000000	89420
66150000000	89773
66200000000	89648
66250000000	89860
66300000000	89713
66350000000	89596
66400000000	90037
66450000000	89304
66500000000	89730
66550000000	89968
66600000000	89884
66650000000	89807
66700000000	89384
66750000000	90012
66800000000	89445
66850000000	89350
66900000000	89118
66950000000	89839
67000000000	89427
67050000000	89060
67100000000	89338
67150000000	89573
67200000000	89740
67250000000	89999
67300000000	89278
67350000000	89163
67400000000	88768
67450000000	88743
67500000000	89554
67550000000	88541
67600000000	89073
67650000000	89432
67700000000	89541
67750000000	89200
67800000000	88936
67850000000	89010
67900000000	88948
67950000000	89301
68000000000	89658
68050000000	88687
68100000000	89703
68150000000	88490
68200000000	89739
68250000000	89337
68300000000	89116
68350000000	88967
68400000000	88893
68450000000	88753
68500000000	89076
68550000000	88381
68600000000	88488
68650000000	88765
68700000000	88895
68750000000	89066
68800000000	88538
68850000000	89114
68900000000	89073
68950000000	88673
69000000000	88515
69050000000	89357
69100000000	88695
69150000000	88409
69200000000	88500
69250000000	88780
69300000000	88703
69350000000	88415
69400000000	88457
69450000000	88427
69500000000	88647
69550000000	88788
69600000000	88730
69650000000	89407
69700000000	88218
69750000000	88627
69800000000	88625
69850000000	88460
69900000000	88939
69950000000	88111
70000000000	88415
70050000000	88493
70100000000	88792
70150000000	88449
70200000000	89063
70250000000	88882
70300000000	88703
70350000000	88790
70400000000	88507
70450000000	89376
70500000000	88098
70550000000	89099
70600000000	88944
70650000000	88556
70700000000	89082
70750000000	89113
70800000000	89178
70850000000	89146
70900000000	88941
70950000000	89113
71000000000	89262
71050000000	89459
71100000000	88898
71150000000	88953
71200000000	89089
71250000000	89386
71300000000	88854
71350000000	89286
71400000000	88742
71450000000	89511
71500000000	89232
71550000000	88691
71600000000	89190
71650000000	89195
71700000000	89480
71750000000	89279
71800000000	89342
71850000000	89135
71900000000	89324
71950000000	89300
72000000000	89459
72050000000	89339
72100000000	89422
72150000000	89212
72200000000	89249
72250000000	88929
72300000000	89077
72350000000	89434
72400000000	88750
72450000000	88841
72500000000	89768
72550000000	89592
72600000000	89440
72650000000	89505
72700000000	89067
72750000000	89735
72800000000	89645
72850000000	89934
72900000000	89454
72950000000	89254
73000000000	89265
73050000000	89539
73100000000	89561
73150000000	89280
73200000000	90061
73250000000	89283
73300000000	89575
73350000000	89122
73400000000	89455
73450000000	89845
73500000000	89852
73550000000	89298
73600000000	89721
73650000000	89464
73700000000	89549
73750000000	89035
73800000000	89042
73850000000	88989
73900000000	89922
73950000000	89092
74000000000	89582
74050000000	89260
74100000000	89505
74150000000	89560
74200000000	89235
74250000000	89040
74300000000	89319
74350000000	89749
74400000000	89220
74450000000	89372
74500000000	89017
74550000000	89203
74600000000	89238
74650000000	89020
74700000000	89190
74750000000	89030
74800000000	88936
74850000000	89346
74900000000	88950
74950000000	89531
75000000000	89087
75050000000	88947
75100000000	89055
75150000000	88965
75200000000	88971
75250000000	88454
75300000000	88548
75350000000	89120
75400000000	88898
75450000000	89410
75500000000	88679
75550000000	88514
75600000000	89067
75650000000	88616
75700000000	88662
75750000000	88491
75800000000	88770
75850000000	88797
75900000000	88532
75950000000	89060
76000000000	88729
76050000000	87910
76100000000	88715
76150000000	88793
76200000000	88939
76250000000	88570
76300000000	88899
76350000000	88868
76400000000	88645
76450000000	88952
76500000000	88517
76550000000	88287
76600000000	88764
76650000000	88874
76700000000	88716
76750000000	89387
76800000000	88866
76850000000	88148
76900000000	88665
76950000000	89128
77000000000	88659
77050000000	88055
77100000000	88208
77150000000	88923
77200000000	88420
77250000000	88536
77300000000	89237
77350000000	88848
77400000000	88893
77450000000	88967
77500000000	88650
77550000000	88935
77600000000	88239
77650000000	88584
77700000000	88741
77750000000	89267
77800000000	88687
77850000000	88872
77900000000	88706
77950000000	88389
78000000000	88814
78050000000	88551
78100000000	88857
78150000000	89113
78200000000	89037
78250000000	89342
78300000000	88972
78350000000	88705
78400000000	88372
78450000000	88891
78500000000	89252
78550000000	89168
78600000000	89200
78650000000	88212
78700000000	88810
78750000000	89217
78800000000	88977
78850000000	89276
78900000000	89176
78950000000	89441
79000000000	89566
79050000000	89007
79100000000	89553
79150000000	89160
79200000000	89411
79250000000	88832
79300000000	89153
79350000000	89311
79400000000	89394
79450000000	88780
79500000000	89851
79550000000	88901
79600000000	89317
79650000000	89234
79700000000	89167
79750000000	89313
79800000000	89100
79850000000	89757
79900000000	88892
79950000000	89542
80000000000	89318
80050000000	89299
80100000000	89431
80150000000	89834
80200000000	89532
80250000000	89446
80300000000	89682
80350000000	89176
80400000000	89108
80450000000	89741
80500000000	89877
80550000000	89373
80600000000	89403
80650000000	89399
80700000000	89479
80750000000	88853
80800000000	89515
80850000000	89116
80900000000	89420
80950000000	89481
81000000000	89436
81050000000	89295
81100000000	89356
81150000000	89793
81200000000	89182
81250000000	89218
81300000000	89179
81350000000	88892
81400000000	89242
81450000000	89426
81500000000	88789
81550000000	89189
81600000000	89332
81650000000	88901
81700000000	88963
81750000000	89683
81800000000	89054
81850000000	89012
81900000000	88842
81950000000	89052
82000000000	89133
82050000000	88901
82100000000	89101
82150000000	89070
82200000000	89172
82250000000	89291
82300000000	88502
82350000000	88954
82400000000	89308
82450000000	88589
82500000000	88960
82550000000	88609
82600000000	88797
82650000000	88607
82700000000	88458
82750000000	89117
82800000000	88960
82850000000	88665
82900000000	88515
82950000000	88089
83000000000	88474
83050000000	88651
83100000000	88583
83150000000	88249
83200000000	88526
83250000000	88362
83300000000	88726
83350000000	88558
83400000000	88756
83450000000	89345
83500000000	88549
83550000000	88395
83600000000	88626
83650000000	88751
83700000000	88782
83750000000	88258
83800000000	89043
83850000000	88475
83900000000	88933
83950000000	88489
84000000000	88824
84050000000	88647
84100000000	88473
84150000000	88445
84200000000	88413
84250000000	88875
84300000000	88747
84350000000	88815
84400000000	88849
84450000000	87943
84500000000	88586
84550000000	88554
84600000000	88852
84650000000	88989
84700000000	88382
84750000000	88534
84800000000	89017
84850000000	88983
84900000000	88282
84950000000	88518
85000000000	88837
85050000000	89103
85100000000	88887
85150000000	89002
85200000000	88377
85250000000	89217
85300000000	89567
85350000000	89003
85400000000	88781
85450000000	88882
85500000000	88216
85550000000	89073
85600000000	88925
85650000000	88966
85700000000	88691
85750000000	88586
85800000000	88796
85850000000	88860
85900000000	89088
85950000000	89102
86000000000	89326
86050000000	89458
86100000000	89077
86150000000	88934
86200000000	89042
86250000000	89002
86300000000	89476
86350000000	89145
86400000000	88927
86450000000	89674
86500000000	89363
86550000000	89473
86600000000	89302
86650000000	89738
86700000000	89428
86750000000	88918
86800000000	88992
86850000000	89586
86900000000	89302
86950000000	89507
87000000000	89508
87050000000	89317
87100000000	89394
87150000000	89021
87200000000	89651
87250000000	89054
87300000000	88886
87350000000	89178
87400000000	89836
87450000000	89225
87500000000	88826
87550000000	89315
87600000000	89312
87650000000	89540
87700000000	89007
87750000000	89274
87800000000	89809
87850000000	89665
87900000000	89580
87950000000	89501
88000000000	89304
88050000000	88783
88100000000	89236
88150000000	89522
88200000000	89346
88250000000	89458
88300000000	89611
88350000000	89725
88400000000	89522
88450000000	88884
88500000000	89816
88550000000	88945
88600000000	89447
88650000000	89240
88700000000	89415
88750000000	89154
88800000000	89246
88850000000	89340
88900000000	89519
88950000000	88813
89000000000	88526
89050000000	89105
89100000000	89126
89150000000	89374
89200000000	89313
89250000000	88779
89300000000	88819
89350000000	89028
89400000000	89279
89450000000	89085
89500000000	89140
89550000000	88490
89600000000	89091
89650000000	89017
89700000000	88982
89750000000	88763
89800000000	89093
89850000000	89080
89900000000	88766
89950000000	88931
90000000000	88773
90050000000	88570
90100000000	88766
90150000000	89136
90200000000	88306
90250000000	88473
90300000000	88924
90350000000	88825
90400000000	88802
90450000000	88204
90500000000	88999
90550000000	88664
90600000000	88352
90650000000	88828
90700000000	88221
90750000000	89041
90800000000	88457
90850000000	88846
90900000000	88757
90950000000	88436
91000000000	88823
91050000000	88501
91100000000	88336
91150000000	88116
91200000000	88804
91250000000	88902
91300000000	88780
91350000000	88711
91400000000	88471
91450000000	88972
91500000000	88897
91550000000	88892
91600000000	89353
91650000000	88715
91700000000	88647
91750000000	88119
91800000000	88566
91850000000	88724
91900000000	88692
91950000000	88927
92000000000	88948
92050000000	88230
92100000000	89110
92150000000	88433
92200000000	88951
92250000000	88681
92300000000	88435
92350000000	89177
92400000000	88973
92450000000	88686
92500000000	89212
92550000000	89192
92600000000	88972
92650000000	89013
92700000000	88594
92750000000	89370
92800000000	88925
92850000000	88886
92900000000	88926
92950000000	89285
93000000000	88714
93050000000	88953
93100000000	89190
93150000000	88931
93200000000	89157
93250000000	88889
93300000000	88586
93350000000	89135
93400000000	89091
93450000000	89230
93500000000	89393
93550000000	89212
93600000000	89375
93650000000	89286
93700000000	88991
93750000000	89242
93800000000	89321
93850000000	89502
93900000000	89804
93950000000	89565
94000000000	89462
94050000000	89021
94100000000	89637
94150000000	89152
94200000000	88907
94250000000	89480
94300000000	89146
94350000000	88948
94400000000	89804
94450000000	89163
94500000000	89547
94550000000	89665
94600000000	89023
94650000000	89492
94700000000	89482
94750000000	89389
94800000000	89574
94850000000	89628
94900000000	89421
94950000000	89421
95000000000	88939
95050000000	89219
95100000000	88738
95150000000	89114
95200000000	89213
95250000000	89483
95300000000	90013
95350000000	89521
95400000000	89540
95450000000	88930
95500000000	89074
95550000000	89378
95600000000	89210
95650000000	89506
95700000000	88975
95750000000	89297
95800000000	89256
95850000000	89155
95900000000	89603
95950000000	89005
96000000000	89112
96050000000	89229
96100000000	89075
96150000000	88650
96200000000	88907
96250000000	89124
96300000000	88732
96350000000	88513
96400000000	89020
96450000000	88800
96500000000	88947
96550000000	88678
96600000000	88963
96650000000	88868
96700000000	88918
96750000000	87923
96800000000	88731
96850000000	88738
96900000000	88330
96950000000	89130
97000000000	88461
97050000000	89157
97100000000	88871
97150000000	88722
97200000000	88870
97250000000	89234
97300000000	88581
97350000000	88672
97400000000	88669
97450000000	88237
97500000000	88506
97550000000	89143
97600000000	88591
97650000000	88980
97700000000	88126
97750000000	88708
97800000000	88816
97850000000	88794
97900000000	88078
97950000000	88344
98000000000	88677
98050000000	88390
98100000000	88574
98150000000	88591
98200000000	88362
98250000000	89172
98300000000	88107
98350000000	88367
98400000000	88721
98450000000	88731
98500000000	88442
98550000000	88603
98600000000	88838
98650000000	88392
98700000000	88573
98750000000	88367
98800000000	88129
98850000000	88543
98900000000	88202
98950000000	88645
99000000000	88269
99050000000	88323
99100000000	88948
99150000000	89292
99200000000	88791
99250000000	88412
99300000000	88996
99350000000	89333
99400000000	89087
99450000000	88484
99500000000	88246
99550000000	88993
99600000000	88395
99650000000	88638
99700000000	88883
99750000000	88855
99800000000	89173
99850000000	89170
99900000000	89203
99950000000	89152
