"Time (ps)"	"Counts per bin"
0	89683
40000	89067
80000	89161
120000	89933
160000	89821
200000	90052
240000	89158
280000	89570
320000	89213
360000	89648
400000	89475
440000	89753
480000	89266
520000	89118
560000	89533
600000	89784
640000	89611
680000	89204
720000	88942
760000	89426
800000	89618
840000	89598
880000	89259
920000	89875
960000	88922
1000000	89263
1040000	89789
1080000	89112
1120000	89151
1160000	89356
1200000	89526
1240000	89303
1280000	89380
1320000	89546
1360000	89507
1400000	89385
1440000	89993
1480000	89287
1520000	89331
1560000	89743
1600000	89213
1640000	89483
1680000	89831
1720000	89233
1760000	89552
1800000	89473
1840000	89688
1880000	90073
1920000	89140
1960000	90014
2000000	89175
2040000	89262
2080000	89133
2120000	89610
2160000	89817
2200000	89039
2240000	89597
2280000	89363
2320000	89232
2360000	89352
2400000	89247
2440000	89525
2480000	89721
2520000	88932
2560000	89748
2600000	90108
2640000	88957
2680000	89433
2720000	89403
2760000	89367
2800000	89634
2840000	89490
2880000	89637
2920000	89061
2960000	89232
3000000	89655
3040000	89445
3080000	89144
3120000	89524
3160000	89264
3200000	89744
3240000	89262
3280000	89363
3320000	89226
3360000	89036
3400000	89256
3440000	89276
3480000	89761
3520000	90130
3560000	89636
3600000	89276
3640000	89646
3680000	89320
3720000	90033
3760000	90274
3800000	89544
3840000	89196
3880000	88704
3920000	89413
3960000	89094
4000000	89382
4040000	89041
4080000	89291
4120000	89615
4160000	89746
4200000	89067
4240000	89643
4280000	89474
4320000	89856
4360000	88838
4400000	89376
4440000	89108
4480000	89329
4520000	89115
4560000	89871
4600000	89029
4640000	89162
4680000	89080
4720000	89538
4760000	89579
4800000	89635
4840000	89312
4880000	89504
4920000	90013
4960000	89558
5000000	89518
5040000	89513
5080000	89740
5120000	90068
5160000	89154
5200000	89476
5240000	89109
5280000	89365
5320000	89990
5360000	89112
5400000	89961
5440000	89446
5480000	89828
5520000	89505
5560000	89116
5600000	90236
5640000	89607
5680000	89328
5720000	89368
5760000	89603
5800000	90183
5840000	89275
5880000	89011
5920000	89535
5960000	89784
6000000	89276
6040000	89718
6080000	89856
6120000	89288
6160000	89347
6200000	89525
6240000	88986
6280000	89362
6320000	89812
6360000	89601
6400000	89490
6440000	89045
6480000	89465
6520000	89855
6560000	89324
6600000	89993
6640000	89015
6680000	89100
6720000	89171
6760000	89553
6800000	88760
6840000	88923
6880000	89696
6920000	89246
6960000	89639
7000000	89938
7040000	89652
7080000	89602
7120000	89320
7160000	89729
7200000	89848
7240000	89501
7280000	89562
7320000	89633
7360000	89192
7400000	89649
7440000	89189
7480000	89559
7520000	89602
7560000	89276
7600000	89334
7640000	89532
7680000	89550
7720000	89650
7760000	89513
7800000	89425
7840000	89368
7880000	89421
7920000	89820
7960000	89604
8000000	89811
8040000	89802
8080000	89080
8120000	89819
8160000	89973
8200000	89989
8240000	90211
8280000	90155
8320000	89867
8360000	89870
8400000	89888
8440000	90117
8480000	89685
8520000	89241
8560000	89944
8600000	90038
8640000	89640
8680000	89678
8720000	89685
8760000	90051
8800000	89759
8840000	89132
8880000	89537
8920000	89763
8960000	88944
9000000	89635
9040000	89321
9080000	89709
9120000	89721
9160000	90137
9200000	89504
9240000	88993
9280000	89542
9320000	89589
9360000	89453
9400000	89733
9440000	88744
9480000	89549
9520000	89169
9560000	89542
9600000	89546
9640000	89296
9680000	89564
9720000	89509
9760000	89930
9800000	89538
9840000	89448
9880000	89493
9920000	89407
9960000	89305
10000000	89984
10040000	89815
10080000	89913
10120000	89835
10160000	89290
10200000	89505
10240000	89498
10280000	88985
10320000	89615
10360000	89112
10400000	89318
10440000	88840
10480000	89564
10520000	89565
10560000	89089
10600000	89610
10640000	89802
10680000	89897
10720000	89315
10760000	89803
10800000	88859
10840000	89603
10880000	89420
10920000	89417
10960000	89328
11000000	89483
11040000	89688
11080000	89666
11120000	89606
11160000	89424
11200000	89784
11240000	90060
11280000	89306
11320000	89029
11360000	89350
11400000	90087
11440000	89904
11480000	89645
11520000	89659
11560000	88661
11600000	89639
11640000	89294
11680000	89412
11720000	89649
11760000	89342
11800000	89912
11840000	89756
11880000	89510
11920000	88743
11960000	89785
12000000	89117
12040000	89440
12080000	89145
12120000	89496
12160000	89594
12200000	89679
12240000	89003
12280000	89351
12320000	89329
12360000	89484
12400000	89546
12440000	89603
12480000	89516
12520000	89392
12560000	88860
12600000	89042
12640000	90059
12680000	90036
12720000	89747
12760000	89614
12800000	89064
12840000	88975
12880000	89520
12920000	89388
12960000	89550
13000000	89107
13040000	89236
13080000	89354
13120000	89809
13160000	89482
13200000	89525
13240000	89590
13280000	89594
13320000	89549
13360000	89412
13400000	89212
13440000	89572
13480000	89751
13520000	89424
13560000	89425
13600000	89578
13640000	89476
13680000	89545
13720000	89187
13760000	89245
13800000	89654
13840000	89576
13880000	89136
13920000	89718
13960000	89841
14000000	89680
14040000	89150
14080000	89303
14120000	89556
14160000	89841
14200000	89393
14240000	89681
14280000	89626
14320000	89557
14360000	89891
14400000	89015
14440000	89279
14480000	89401
14520000	89384
14560000	89318
14600000	89369
14640000	89766
14680000	89619
14720000	89414
14760000	89004
14800000	89121
14840000	89216
14880000	89600
14920000	89832
14960000	89470
15000000	89531
15040000	89772
15080000	89626
15120000	89453
15160000	89693
15200000	89589
15240000	89254
15280000	89273
15320000	90064
15360000	89697
15400000	89483
15440000	89494
15480000	89882
15520000	89442
15560000	89903
15600000	89300
15640000	89652
15680000	89187
15720000	89532
15760000	89183
15800000	89381
15840000	89518
15880000	89044
15920000	89892
15960000	89377
16000000	89711
16040000	89674
16080000	88883
16120000	89995
16160000	89174
16200000	89471
16240000	89064
16280000	89690
16320000	89428
16360000	89767
16400000	89313
16440000	88906
16480000	89621
16520000	89489
16560000	89773
16600000	88926
16640000	89745
16680000	89415
16720000	89358
16760000	89072
16800000	89501
16840000	89246
16880000	89838
16920000	89354
16960000	89414
17000000	88915
17040000	89261
17080000	89879
17120000	88513
17160000	89282
17200000	89624
17240000	88865
17280000	89455
17320000	89677
17360000	89869
17400000	89292
17440000	89471
17480000	89156
17520000	90089
17560000	89553
17600000	89946
17640000	89495
17680000	89388
17720000	89591
17760000	89697
17800000	89237
17840000	89801
17880000	89919
17920000	89220
17960000	89299
18000000	89533
18040000	89155
18080000	89666
18120000	89312
18160000	89194
18200000	89532
18240000	89353
18280000	89341
18320000	88884
18360000	89406
18400000	89422
18440000	89193
18480000	89424
18520000	89301
18560000	89525
18600000	89862
18640000	89129
18680000	89602
18720000	89601
18760000	89035
18800000	88566
18840000	89237
18880000	89438
18920000	89444
18960000	88927
19000000	90074
19040000	89816
19080000	89894
19120000	89377
19160000	89431
19200000	88881
19240000	88801
19280000	89299
19320000	89703
19360000	89464
19400000	89757
19440000	89144
19480000	89523
19520000	89375
19560000	89520
19600000	89412
19640000	89445
19680000	89064
19720000	89094
19760000	89544
19800000	89273
19840000	89620
19880000	89802
19920000	89057
19960000	89140
20000000	89653
20040000	89153
20080000	89070
20120000	89849
20160000	89943
20200000	90033
20240000	89146
20280000	89676
20320000	89168
20360000	89678
20400000	89393
20440000	89799
20480000	89288
20520000	89001
20560000	89539
20600000	89776
20640000	89751
20680000	89115
20720000	88979
20760000	89365
20800000	89686
20840000	89604
20880000	89207
20920000	89960
20960000	88946
21000000	89221
21040000	89798
21080000	89036
21120000	89181
21160000	89364
21200000	89527
21240000	89276
21280000	89337
21320000	89624
21360000	89625
21400000	89303
21440000	89873
21480000	89289
21520000	89347
21560000	89846
21600000	89140
21640000	89488
21680000	89788
21720000	89281
21760000	89544
21800000	89602
21840000	89575
21880000	90096
21920000	89146
21960000	89995
22000000	89108
22040000	89319
22080000	89203
22120000	89560
22160000	89818
22200000	89021
22240000	89620
22280000	89344
22320000	89251
22360000	89318
22400000	89241
22440000	89445
22480000	89869
22520000	88865
22560000	89765
22600000	90098
22640000	88955
22680000	89451
22720000	89375
22760000	89353
22800000	89620
22840000	89599
22880000	89619
22920000	89000
22960000	89284
23000000	89601
23040000	89435
23080000	89185
23120000	89562
23160000	89265
23200000	89730
23240000	89227
23280000	89349
23320000	89248
23360000	88977
23400000	89266
23440000	89438
23480000	89658
23520000	90091
23560000	89664
23600000	89228
23640000	89727
23680000	89355
23720000	89951
23760000	90223
23800000	89585
23840000	89169
23880000	88754
23920000	89350
23960000	89130
24000000	89409
24040000	88975
24080000	89306
24120000	89597
24160000	89800
24200000	89075
24240000	89624
24280000	89448
24320000	89931
24360000	88900
24400000	89215
24440000	89184
24480000	89417
24520000	88967
24560000	89910
24600000	89044
24640000	89173
24680000	89128
24720000	89526
24760000	89499
24800000	89702
24840000	89270
24880000	89507
24920000	90033
24960000	89432
25000000	89677
25040000	89459
25080000	89776
25120000	89956
25160000	89295
25200000	89441
25240000	89049
25280000	89430
25320000	90021
25360000	89082
25400000	90012
25440000	89344
25480000	89862
25520000	89493
25560000	89070
25600000	90289
25640000	89583
25680000	89293
25720000	89412
25760000	89644
25800000	90203
25840000	89177
25880000	89106
25920000	89510
25960000	89814
26000000	89222
26040000	89673
26080000	89896
26120000	89261
26160000	89384
26200000	89496
26240000	89064
26280000	89179
26320000	89938
26360000	89592
26400000	89375
26440000	89162
26480000	89485
26520000	89831
26560000	89274
26600000	90023
26640000	89085
26680000	89072
26720000	89169
26760000	89480
26800000	88848
26840000	88856
26880000	89710
26920000	89240
26960000	89667
27000000	89924
27040000	89635
27080000	89653
27120000	89281
27160000	89766
27200000	89862
27240000	89372
27280000	89639
27320000	89612
27360000	89184
27400000	89699
27440000	89172
27480000	89594
27520000	89513
27560000	89255
27600000	89418
27640000	89481
27680000	89598
27720000	89684
27760000	89461
27800000	89470
27840000	89375
27880000	89427
27920000	89757
27960000	89661
28000000	89791
28040000	89859
28080000	89025
28120000	89824
28160000	89972
28200000	90013
28240000	90077
28280000	90221
28320000	89931
28360000	89800
28400000	89918
28440000	90150
28480000	89691
28520000	89270
28560000	89848
28600000	90061
28640000	89676
28680000	89595
28720000	89722
28760000	89999
28800000	89841
28840000	89121
28880000	89564
28920000	89688
28960000	89062
29000000	89580
29040000	89301
29080000	89784
29120000	89693
29160000	90091
29200000	89526
29240000	89044
29280000	89448
29320000	89662
29360000	89373
29400000	89784
29440000	88752
29480000	89554
29520000	89158
29560000	89461
29600000	89608
29640000	89322
29680000	89481
29720000	89531
29760000	89963
29800000	89534
29840000	89461
29880000	89439
29920000	89363
29960000	89467
30000000	89878
30040000	89785
30080000	89907
30120000	89971
30160000	89270
30200000	89505
30240000	89381
30280000	89049
30320000	89660
30360000	89033
30400000	89313
30440000	88888
30480000	89588
30520000	89500
30560000	89095
30600000	89613
30640000	89890
30680000	89789
30720000	89319
30760000	89887
30800000	88830
30840000	89633
30880000	89408
30920000	89455
30960000	89216
31000000	89516
31040000	89680
31080000	89665
31120000	89636
31160000	89473
31200000	89715
31240000	90119
31280000	89371
31320000	88853
31360000	89412
31400000	90085
31440000	89851
31480000	89687
31520000	89659
31560000	88677
31600000	89637
31640000	89399
31680000	89306
31720000	89653
31760000	89374
31800000	89830
31840000	89845
31880000	89529
31920000	88644
31960000	89809
32000000	89133
32040000	89459
32080000	89215
32120000	89312
32160000	89658
32200000	89651
32240000	89078
32280000	89327
32320000	89358
32360000	89471
32400000	89561
32440000	89587
32480000	89527
32520000	89396
32560000	88805
32600000	88931
32640000	90179
32680000	90088
32720000	89820
32760000	89607
32800000	88991
32840000	89024
32880000	89439
32920000	89416
32960000	89529
33000000	89081
33040000	89289
33080000	89363
33120000	89845
33160000	89377
33200000	89580
33240000	89510
33280000	89738
33320000	89431
33360000	89495
33400000	89174
33440000	89627
33480000	89726
33520000	89373
33560000	89483
33600000	89560
33640000	89435
33680000	89534
33720000	89213
33760000	89142
33800000	89725
33840000	89660
33880000	89035
33920000	89687
33960000	89915
34000000	89661
34040000	89135
34080000	89342
34120000	89569
34160000	89735
34200000	89469
34240000	89611
34280000	89702
34320000	89563
34360000	89858
34400000	89054
34440000	89193
34480000	89479
34520000	89382
34560000	89326
34600000	89346
34640000	89875
34680000	89457
34720000	89560
34760000	88963
34800000	89092
34840000	89257
34880000	89520
34920000	89858
34960000	89528
35000000	89486
35040000	89720
35080000	89633
35120000	89517
35160000	89720
35200000	89578
35240000	89154
35280000	89343
35320000	90078
35360000	89740
35400000	89428
35440000	89493
35480000	89932
35520000	89355
35560000	89894
35600000	89306
35640000	89727
35680000	89150
35720000	89582
35760000	89082
35800000	89458
35840000	89459
35880000	89030
35920000	89897
35960000	89398
36000000	89789
36040000	89542
36080000	88911
36120000	90002
36160000	89183
36200000	89478
36240000	89041
36280000	89772
36320000	89394
36360000	89814
36400000	89258
36440000	88883
36480000	89738
36520000	89359
36560000	89764
36600000	88989
36640000	89723
36680000	89354
36720000	89450
36760000	89059
36800000	89435
36840000	89361
36880000	89719
36920000	89502
36960000	89377
37000000	88817
37040000	89286
37080000	89959
37120000	88539
37160000	89237
37200000	89595
37240000	88826
37280000	89557
37320000	89642
37360000	89826
37400000	89231
37440000	89551
37480000	89113
37520000	90075
37560000	89648
37600000	89863
37640000	89593
37680000	89258
37720000	89492
37760000	89923
37800000	89154
37840000	89796
37880000	89913
37920000	89282
37960000	89305
38000000	89512
38040000	89119
38080000	89684
38120000	89258
38160000	89303
38200000	89440
38240000	89344
38280000	89404
38320000	88814
38360000	89446
38400000	89360
38440000	89290
38480000	89413
38520000	89269
38560000	89549
38600000	89855
38640000	89115
38680000	89605
38720000	89550
38760000	89165
38800000	88565
38840000	89168
38880000	89419
38920000	89389
38960000	89003
39000000	90130
39040000	89781
39080000	89772
39120000	89475
39160000	89472
39200000	88915
39240000	88748
39280000	89286
39320000	89671
39360000	89556
39400000	89780
39440000	88940
39480000	89570
39520000	89433
39560000	89534
39600000	89427
39640000	89404
39680000	89172
39720000	89077
39760000	89478
39800000	89281
39840000	89608
39880000	89782
39920000	89024
39960000	89192
