"Time (ps)"	"Counts per bin"
0	8261
5000000	8192
10000000	8138
15000000	7972
20000000	8062
25000000	8017
30000000	8117
35000000	8303
40000000	8249
45000000	8076
50000000	8202
55000000	8234
60000000	8041
65000000	8216
70000000	8145
75000000	7985
80000000	8148
85000000	8242
90000000	8140
95000000	7950
100000000	8234
105000000	8312
110000000	8061
115000000	8109
120000000	8080
125000000	8127
130000000	8105
135000000	8000
140000000	8050
145000000	8266
150000000	8105
155000000	7954
160000000	8079
165000000	7996
170000000	8067
175000000	8280
180000000	8010
185000000	8220
190000000	8125
195000000	8086
200000000	8171
205000000	8088
210000000	8010
215000000	8016
220000000	8245
225000000	8163
230000000	8089
235000000	7959
240000000	8092
245000000	8066
250000000	8132
255000000	8229
260000000	8083
265000000	8022
270000000	8012
275000000	8098
280000000	8334
285000000	8047
290000000	8090
295000000	8042
300000000	8110
305000000	8030
310000000	8069
315000000	8167
320000000	8039
325000000	8152
330000000	8187
335000000	7978
340000000	8154
345000000	8214
350000000	8269
355000000	8156
360000000	8054
365000000	8175
370000000	8038
375000000	8183
380000000	8028
385000000	8110
390000000	8191
395000000	8080
400000000	8048
405000000	8163
410000000	8279
415000000	8036
420000000	8264
425000000	8031
430000000	8163
435000000	8120
440000000	8116
445000000	7946
450000000	8195
455000000	8022
460000000	8086
465000000	7979
470000000	8324
475000000	8126
480000000	8103
485000000	8090
490000000	8207
495000000	8087
500000000	8151
505000000	8159
510000000	8082
515000000	8245
520000000	8173
525000000	8164
530000000	8219
535000000	8060
540000000	8033
545000000	8133
550000000	8161
555000000	8097
560000000	8125
565000000	8197
570000000	8256
575000000	8067
580000000	8119
585000000	8170
590000000	8061
595000000	8038
600000000	8128
605000000	8013
610000000	8149
615000000	8094
620000000	8273
625000000	8029
630000000	8091
635000000	8217
640000000	8143
645000000	8086
650000000	8120
655000000	8190
660000000	8073
665000000	8102
670000000	8125
675000000	8154
680000000	8155
685000000	7863
690000000	8234
695000000	7884
700000000	8205
705000000	8196
710000000	8181
715000000	8159
720000000	8181
725000000	8165
730000000	8109
735000000	8010
740000000	8215
745000000	8089
750000000	8153
755000000	8035
760000000	8025
765000000	7996
770000000	8218
775000000	7931
780000000	8119
785000000	7960
790000000	8086
795000000	7953
800000000	8098
805000000	8273
810000000	8162
815000000	8138
820000000	8256
825000000	8118
830000000	8302
835000000	8186
840000000	8047
845000000	8158
850000000	8163
855000000	8139
860000000	7983
865000000	8071
870000000	8171
875000000	8054
880000000	8164
885000000	8136
890000000	8137
895000000	8212
900000000	8195
905000000	8026
910000000	8310
915000000	8176
920000000	8187
925000000	8037
930000000	8054
935000000	7977
940000000	8202
945000000	8028
950000000	8287
955000000	8051
960000000	8050
965000000	8102
970000000	8143
975000000	8078
980000000	8069
985000000	8106
990000000	8030
995000000	8179
1000000000	8151
1005000000	8244
1010000000	8238
1015000000	8055
1020000000	8180
1025000000	8155
1030000000	8086
1035000000	8289
1040000000	7914
1045000000	8096
1050000000	8286
1055000000	8071
1060000000	8201
1065000000	8031
1070000000	8218
1075000000	8327
1080000000	8341
1085000000	8102
1090000000	7993
1095000000	7882
1100000000	8159
1105000000	8034
1110000000	8035
1115000000	8013
1120000000	8109
1125000000	8155
1130000000	8144
1135000000	7980
1140000000	7976
1145000000	8211
1150000000	8091
1155000000	8099
1160000000	8081
1165000000	8040
1170000000	8041
1175000000	8097
1180000000	8121
1185000000	8072
1190000000	8165
1195000000	8236
1200000000	8124
1205000000	8218
1210000000	8086
1215000000	8178
1220000000	8071
1225000000	8042
1230000000	8112
1235000000	8232
1240000000	8272
1245000000	8138
1250000000	8053
1255000000	8134
1260000000	8069
1265000000	8117
1270000000	8041
1275000000	7972
1280000000	7956
1285000000	8064
1290000000	8073
1295000000	8180
1300000000	8047
1305000000	8108
1310000000	8042
1315000000	8051
1320000000	7991
1325000000	8056
1330000000	8166
1335000000	8021
1340000000	8048
1345000000	7918
1350000000	8027
1355000000	7890
1360000000	8048
1365000000	8107
1370000000	8190
1375000000	8162
1380000000	8169
1385000000	8108
1390000000	8096
1395000000	8146
1400000000	8026
1405000000	8169
1410000000	8024
1415000000	8178
1420000000	8115
1425000000	8093
1430000000	8148
1435000000	8024
1440000000	7967
1445000000	8123
1450000000	8043
1455000000	8081
1460000000	8322
1465000000	8064
1470000000	8036
1475000000	7962
1480000000	8244
1485000000	8211
1490000000	8084
1495000000	8130
1500000000	8154
1505000000	8107
1510000000	8125
1515000000	8117
1520000000	8182
1525000000	7969
1530000000	8231
1535000000	8116
1540000000	8204
1545000000	8065
1550000000	8012
1555000000	8177
1560000000	8011
1565000000	8129
1570000000	8081
1575000000	8093
1580000000	8229
1585000000	8140
1590000000	8352
1595000000	8080
1600000000	8131
1605000000	8216
1610000000	8180
1615000000	8105
1620000000	7962
1625000000	8142
1630000000	7966
1635000000	8234
1640000000	8017
1645000000	8013
1650000000	8001
1655000000	7931
1660000000	8183
1665000000	8377
1670000000	8129
1675000000	8044
1680000000	8123
1685000000	8073
1690000000	8055
1695000000	8105
1700000000	8166
1705000000	8210
1710000000	7985
1715000000	8040
1720000000	8079
1725000000	8230
1730000000	8218
1735000000	8029
1740000000	8118
1745000000	8172
1750000000	8047
1755000000	8073
1760000000	8169
1765000000	8043
1770000000	8161
1775000000	8166
1780000000	8114
1785000000	7960
1790000000	8085
1795000000	8100
1800000000	8112
1805000000	7967
1810000000	8108
1815000000	8320
1820000000	8249
1825000000	7985
1830000000	7982
1835000000	8056
1840000000	8175
1845000000	8041
1850000000	7976
1855000000	7972
1860000000	8171
1865000000	8063
1870000000	8109
1875000000	8010
1880000000	8026
1885000000	8052
1890000000	8162
1895000000	8105
1900000000	8108
1905000000	8177
1910000000	8140
1915000000	7946
1920000000	8136
1925000000	8256
1930000000	8078
1935000000	7984
1940000000	8220
1945000000	8142
1950000000	8093
1955000000	8135
1960000000	8083
1965000000	8009
1970000000	7964
1975000000	8324
1980000000	7900
1985000000	7961
1990000000	8248
1995000000	8172
2000000000	8257
2005000000	8201
2010000000	8134
2015000000	7973
2020000000	8035
2025000000	8037
2030000000	8140
2035000000	8269
2040000000	8268
2045000000	8066
2050000000	8226
2055000000	8220
2060000000	8028
2065000000	8224
2070000000	8124
2075000000	8012
2080000000	8152
2085000000	8224
2090000000	8153
2095000000	7957
2100000000	8216
2105000000	8306
2110000000	8081
2115000000	8114
2120000000	8063
2125000000	8123
2130000000	8096
2135000000	8012
2140000000	8056
2145000000	8242
2150000000	8130
2155000000	7948
2160000000	8087
2165000000	8012
2170000000	8056
2175000000	8248
2180000000	8013
2185000000	8233
2190000000	8129
2195000000	8100
2200000000	8152
2205000000	8088
2210000000	8005
2215000000	8023
2220000000	8249
2225000000	8134
2230000000	8091
2235000000	7977
2240000000	8080
2245000000	8069
2250000000	8154
2255000000	8215
2260000000	8091
2265000000	8021
2270000000	8012
2275000000	8087
2280000000	8320
2285000000	8086
2290000000	8073
2295000000	8034
2300000000	8109
2305000000	8032
2310000000	8088
2315000000	8155
2320000000	8057
2325000000	8125
2330000000	8216
2335000000	7950
2340000000	8162
2345000000	8220
2350000000	8265
2355000000	8173
2360000000	8023
2365000000	8202
2370000000	8016
2375000000	8178
2380000000	8040
2385000000	8118
2390000000	8165
2395000000	8098
2400000000	8081
2405000000	8150
2410000000	8265
2415000000	8017
2420000000	8282
2425000000	8036
2430000000	8159
2435000000	8131
2440000000	8126
2445000000	7933
2450000000	8170
2455000000	8019
2460000000	8094
2465000000	7999
2470000000	8286
2475000000	8147
2480000000	8106
2485000000	8096
2490000000	8210
2495000000	8078
2500000000	8145
2505000000	8170
2510000000	8062
2515000000	8285
2520000000	8165
2525000000	8151
2530000000	8210
2535000000	8088
2540000000	8009
2545000000	8141
2550000000	8149
2555000000	8107
2560000000	8121
2565000000	8204
2570000000	8251
2575000000	8059
2580000000	8115
2585000000	8201
2590000000	8054
2595000000	8037
2600000000	8122
2605000000	8018
2610000000	8150
2615000000	8091
2620000000	8273
2625000000	8031
2630000000	8073
2635000000	8235
2640000000	8149
2645000000	8065
2650000000	8137
2655000000	8176
2660000000	8078
2665000000	8102
2670000000	8109
2675000000	8153
2680000000	8194
2685000000	7845
2690000000	8234
2695000000	7873
2700000000	8191
2705000000	8210
2710000000	8186
2715000000	8160
2720000000	8183
2725000000	8179
2730000000	8109
2735000000	7994
2740000000	8204
2745000000	8096
2750000000	8150
2755000000	8054
2760000000	8038
2765000000	7980
2770000000	8214
2775000000	7910
2780000000	8129
2785000000	7981
2790000000	8069
2795000000	7958
2800000000	8114
2805000000	8250
2810000000	8161
2815000000	8157
2820000000	8241
2825000000	8125
2830000000	8284
2835000000	8193
2840000000	8039
2845000000	8184
2850000000	8173
2855000000	8117
2860000000	7984
2865000000	8067
2870000000	8199
2875000000	8041
2880000000	8124
2885000000	8172
2890000000	8105
2895000000	8240
2900000000	8144
2905000000	8091
2910000000	8305
2915000000	8170
2920000000	8164
2925000000	8053
2930000000	8031
2935000000	8012
2940000000	8171
2945000000	8030
2950000000	8283
2955000000	8068
2960000000	8049
2965000000	8096
2970000000	8158
2975000000	8068
2980000000	8083
2985000000	8115
2990000000	8023
2995000000	8173
3000000000	8157
3005000000	8220
3010000000	8255
3015000000	8057
3020000000	8171
3025000000	8147
3030000000	8094
3035000000	8297
3040000000	7907
3045000000	8081
3050000000	8304
3055000000	8080
3060000000	8203
3065000000	8019
3070000000	8244
3075000000	8294
3080000000	8379
3085000000	8058
3090000000	7977
3095000000	7921
3100000000	8142
3105000000	8038
3110000000	8045
3115000000	8002
3120000000	8126
3125000000	8142
3130000000	8143
3135000000	7971
3140000000	7991
3145000000	8191
3150000000	8139
3155000000	8059
3160000000	8084
3165000000	8025
3170000000	8062
3175000000	8082
3180000000	8137
3185000000	8094
3190000000	8126
3195000000	8247
3200000000	8116
3205000000	8262
3210000000	8045
3215000000	8171
3220000000	8071
3225000000	8050
3230000000	8099
3235000000	8252
3240000000	8264
3245000000	8162
3250000000	8036
3255000000	8130
3260000000	8086
3265000000	8095
3270000000	8059
3275000000	7997
3280000000	7918
3285000000	8081
3290000000	8073
3295000000	8159
3300000000	8051
3305000000	8118
3310000000	8053
3315000000	8032
3320000000	7959
3325000000	8106
3330000000	8159
3335000000	8006
3340000000	8076
3345000000	7911
3350000000	8020
3355000000	7866
3360000000	8063
3365000000	8102
3370000000	8203
3375000000	8162
3380000000	8153
3385000000	8131
3390000000	8055
3395000000	8205
3400000000	8007
3405000000	8147
3410000000	8054
3415000000	8154
3420000000	8123
3425000000	8081
3430000000	8155
3435000000	8032
3440000000	7965
3445000000	8108
3450000000	8023
3455000000	8123
3460000000	8326
3465000000	8044
3470000000	8033
3475000000	7974
3480000000	8212
3485000000	8247
3490000000	8046
3495000000	8146
3500000000	8178
3505000000	8111
3510000000	8091
3515000000	8130
3520000000	8193
3525000000	7958
3530000000	8213
3535000000	8134
3540000000	8195
3545000000	8082
3550000000	8020
3555000000	8155
3560000000	8023
3565000000	8123
3570000000	8080
3575000000	8084
3580000000	8239
3585000000	8144
3590000000	8361
3595000000	8078
3600000000	8128
3605000000	8232
3610000000	8157
3615000000	8132
3620000000	7949
3625000000	8098
3630000000	8003
3635000000	8219
3640000000	8027
3645000000	8019
3650000000	8007
3655000000	7938
3660000000	8160
3665000000	8391
3670000000	8099
3675000000	8067
3680000000	8116
3685000000	8097
3690000000	8034
3695000000	8118
3700000000	8147
3705000000	8211
3710000000	7995
3715000000	8029
3720000000	8061
3725000000	8274
3730000000	8201
3735000000	7999
3740000000	8168
3745000000	8150
3750000000	8068
3755000000	8053
3760000000	8156
3765000000	8040
3770000000	8186
3775000000	8136
3780000000	8138
3785000000	7954
3790000000	8096
3795000000	8097
3800000000	8094
3805000000	7982
3810000000	8104
3815000000	8329
3820000000	8252
3825000000	7989
3830000000	7969
3835000000	8036
3840000000	8181
3845000000	8047
3850000000	7981
3855000000	7984
3860000000	8149
3865000000	8057
3870000000	8126
3875000000	8014
3880000000	8042
3885000000	8039
3890000000	8155
3895000000	8098
3900000000	8111
3905000000	8190
3910000000	8134
3915000000	7944
3920000000	8126
3925000000	8266
3930000000	8082
3935000000	7969
3940000000	8229
3945000000	8125
3950000000	8115
3955000000	8127
3960000000	8086
3965000000	8030
3970000000	7935
3975000000	8327
3980000000	7911
3985000000	7969
3990000000	8230
3995000000	8196
4000000000	8248
4005000000	8196
4010000000	8140
4015000000	7973
4020000000	8031
4025000000	8021
4030000000	8160
4035000000	8266
4040000000	8242
4045000000	8094
4050000000	8199
4055000000	8250
4060000000	8012
4065000000	8207
4070000000	8139
4075000000	8023
4080000000	8124
4085000000	8225
4090000000	8192
4095000000	7926
4100000000	8221
4105000000	8311
4110000000	8067
4115000000	8121
4120000000	8103
4125000000	8084
4130000000	8103
4135000000	8009
4140000000	8068
4145000000	8215
4150000000	8151
4155000000	7956
4160000000	8078
4165000000	8015
4170000000	8057
4175000000	8249
4180000000	8011
4185000000	8239
4190000000	8142
4195000000	8073
4200000000	8162
4205000000	8057
4210000000	8037
4215000000	8023
4220000000	8242
4225000000	8141
4230000000	8100
4235000000	7956
4240000000	8106
4245000000	8063
4250000000	8145
4255000000	8206
4260000000	8117
4265000000	8001
4270000000	8011
4275000000	8070
4280000000	8321
4285000000	8126
4290000000	8050
4295000000	8037
4300000000	8121
4305000000	8037
4310000000	8063
4315000000	8141
4320000000	8084
4325000000	8098
4330000000	8257
4335000000	7941
4340000000	8147
4345000000	8245
4350000000	8269
4355000000	8130
4360000000	8041
4365000000	8191
4370000000	8036
4375000000	8179
4380000000	8015
4385000000	8154
4390000000	8136
4395000000	8125
4400000000	8057
4405000000	8180
4410000000	8226
4415000000	8042
4420000000	8261
4425000000	8047
4430000000	8151
4435000000	8120
4440000000	8135
4445000000	7964
4450000000	8142
4455000000	8028
4460000000	8082
4465000000	8008
4470000000	8271
4475000000	8163
4480000000	8124
4485000000	8079
4490000000	8188
4495000000	8102
4500000000	8157
4505000000	8158
4510000000	8047
4515000000	8286
4520000000	8201
4525000000	8120
4530000000	8205
4535000000	8077
4540000000	8001
4545000000	8165
4550000000	8159
4555000000	8105
4560000000	8100
4565000000	8214
4570000000	8250
4575000000	8070
4580000000	8094
4585000000	8217
4590000000	8060
4595000000	8020
4600000000	8128
4605000000	7995
4610000000	8155
4615000000	8125
4620000000	8256
4625000000	8060
4630000000	8037
4635000000	8251
4640000000	8148
4645000000	8057
4650000000	8126
4655000000	8190
4660000000	8091
4665000000	8099
4670000000	8110
4675000000	8155
4680000000	8176
4685000000	7878
4690000000	8215
4695000000	7882
4700000000	8164
4705000000	8209
4710000000	8181
4715000000	8194
4720000000	8155
4725000000	8180
4730000000	8124
4735000000	7999
4740000000	8203
4745000000	8086
4750000000	8159
4755000000	8038
4760000000	8053
4765000000	7976
4770000000	8209
4775000000	7919
4780000000	8110
4785000000	7979
4790000000	8104
4795000000	7934
4800000000	8092
4805000000	8271
4810000000	8153
4815000000	8148
4820000000	8256
4825000000	8127
4830000000	8292
4835000000	8184
4840000000	8050
4845000000	8179
4850000000	8182
4855000000	8114
4860000000	7993
4865000000	8042
4870000000	8225
4875000000	8004
4880000000	8135
4885000000	8195
4890000000	8112
4895000000	8221
4900000000	8133
4905000000	8101
4910000000	8302
4915000000	8178
4920000000	8168
4925000000	8019
4930000000	8074
4935000000	7981
4940000000	8194
4945000000	8028
4950000000	8259
4955000000	8085
4960000000	8045
4965000000	8099
4970000000	8156
4975000000	8077
4980000000	8065
4985000000	8128
4990000000	8017
4995000000	8167
